ME_POz-Fz,MD_POz-Fz,ME_POz-Cz,MD_POz-Cz,ME_POz-C3,MD_POz-C3,ME_POz-C4,MD_POz-C4,ME_POz-F3,MD_POz-F3,ME_POz-F4,MD_POz-F4,ME_POz-P3,MD_POz-P3,ME_POz-P4,MD_POz-P4,ME_Fz-Cz,MD_Fz-Cz,ME_Fz-C3,MD_Fz-C3,ME_Fz-C4,MD_Fz-C4,ME_Fz-F3,MD_Fz-F3,ME_Fz-F4,MD_Fz-F4,ME_Fz-P3,MD_Fz-P3,ME_Fz-P4,MD_Fz-P4,ME_Cz-C3,MD_Cz-C3,ME_Cz-C4,MD_Cz-C4,ME_Cz-F3,MD_Cz-F3,ME_Cz-F4,MD_Cz-F4,ME_Cz-P3,MD_Cz-P3,ME_Cz-P4,MD_Cz-P4,ME_C3-C4,MD_C3-C4,ME_C3-F3,MD_C3-F3,ME_C3-F4,MD_C3-F4,ME_C3-P3,MD_C3-P3,ME_C3-P4,MD_C3-P4,ME_C4-F3,MD_C4-F3,ME_C4-F4,MD_C4-F4,ME_C4-P3,MD_C4-P3,ME_C4-P4,MD_C4-P4,ME_F3-F4,MD_F3-F4,ME_F3-P3,MD_F3-P3,ME_F3-P4,MD_F3-P4,ME_F4-P3,MD_F4-P3,ME_F4-P4,MD_F4-P4,ME_P3-P4,MD_P3-P4
0.5191277429795067,0.47805123063467886,0.527682155992564,0.4869084586783382,0.5674748398989083,0.47303665828151803,0.47619132289646654,0.5733329013745013,0.5362522594792267,0.4906132757260613,0.4968719337445323,0.48032131141239615,0.520709830848374,0.5631275341214772,0.5066558211269421,0.4891408186916485,0.5711320304973085,0.5480466689946905,0.4789154646188351,0.494832558353381,0.46681370421775664,0.5293565005470902,0.5700985870013596,0.6361868220105464,0.5081100628113271,0.5656314663164397,0.47895735296121456,0.5009843505710306,0.6547293111913155,0.6078051291934572,0.4930496367279577,0.5261932845722544,0.5233541498538318,0.5024603821316364,0.5707497550621699,0.5819996280024472,0.523887383736264,0.4868335398991476,0.47049607781911496,0.47026022004601564,0.49236650101289786,0.4675406506028136,0.49774474808223834,0.48190262458865296,0.4800881137611959,0.5628579965023275,0.4856054317518482,0.49030624077503565,0.49749122239689464,0.5363100309958625,0.5588601939679805,0.5258485956236436,0.5199573824437742,0.4957378972597466,0.4787756549400633,0.48990153518862345,0.5072383072078225,0.5495696981680399,0.5213309633547533,0.5023020337918609,0.5776956868405991,0.5668699788638575,0.4981792872077538,0.47548125164261484,0.4953022584973617,0.46859551157691975,0.4779606172001197,0.48581963070157846,0.570863953288639,0.4879773221936465,0.558013832784462,0.561925175772757
0.5893491287086368,0.651604826291927,0.4920539113771687,0.47030765736716773,0.5246577597398933,0.4895093020387689,0.5577907815073189,0.5074940968307756,0.4895012606530841,0.523347780415284,0.5114496447071775,0.5295071626460751,0.5665233323477523,0.5067596516258759,0.48459764560407204,0.5096377252187936,0.551598622864942,0.6198293305339377,0.5338343212854044,0.530515240124567,0.5025861297776936,0.5308934061629069,0.49895421146903784,0.5312358257048214,0.4881638967856551,0.49717550752689454,0.5481660657058127,0.494830805606009,0.5062746913348404,0.4661866752406093,0.4813144383365312,0.4742362486026391,0.48827431959790274,0.48154039608726834,0.5007763601089308,0.5126882660929926,0.4993569224578286,0.5027156050288859,0.4912624085037683,0.4837656898606271,0.4922777106240166,0.4834890408633152,0.49087815190681816,0.501860249186997,0.4821343339573936,0.5007822171220658,0.536811436864915,0.5389193673334176,0.5250241882372949,0.5532309984660791,0.5127965888175419,0.548467694723703,0.5438578994464709,0.5255813220848975,0.5034499287638645,0.482344022122472,0.5197994266177556,0.5468248851474486,0.5196786995033074,0.507536579331016,0.48207661003557867,0.481222859465485,0.5016978068652306,0.4743649396601851,0.5357714195325207,0.5272554817177821,0.5461034681422038,0.5318133075464185,0.47818461186960154,0.4856309636558052,0.4810172185386379,0.5202406976433405
0.5159786342578093,0.5103223070670463,0.5111976678704031,0.5075941242710096,0.6371115857232211,0.47324708096926804,0.546233257049638,0.4795893792806497,0.5113201264595867,0.47919104409021157,0.49177008114730963,0.5455103783240555,0.47995546471989975,0.5109283398332615,0.5509932901892222,0.5570524220821005,0.5032863848762337,0.6158025171711069,0.6098587069445217,0.522678313082781,0.47666856718776096,0.5278992154923186,0.4881726856558904,0.5445472707580501,0.4837639064770922,0.6038698596109876,0.47912879817660603,0.4945043380777417,0.5558099097604514,0.5296852817850044,0.4783554082746851,0.5156253814336217,0.5292550717942373,0.4795279693640703,0.5058495920794468,0.5542356238763891,0.5548424880395243,0.6785478232653228,0.5473644188117404,0.5573589052321605,0.4968263127862866,0.49495901387975777,0.6211260806843415,0.5032671271726807,0.5966749164451833,0.4882952982016718,0.4706706467515737,0.5179125338234559,0.5125200577907993,0.5333195927961374,0.6329330334800383,0.5017907692009808,0.6763996645421649,0.5382138873289065,0.54452938286085,0.4888038675027557,0.490166522037858,0.5779365808665812,0.7053555170990626,0.5916928896236563,0.5463456220473357,0.5148425906857085,0.4730618284801262,0.6275573652074504,0.5753452860136047,0.5323705390910835,0.48413916335901164,0.5398344450636864,0.46193959154903097,0.4997056868190581,0.48054616187519744,0.5884685549678262
0.53486990938904,0.5861278344298994,0.5006885141103633,0.7609022330928957,0.5210136854672544,0.7437131412761164,0.5258640024635288,0.4861085931082914,0.5266844647903377,0.6694010987510919,0.5364181325016115,0.5657255481318763,0.6851082935571822,0.6540173937331346,0.5837102334550496,0.571128645577109,0.5325884831117986,0.5865147059870263,0.6660414620680093,0.6929938658658961,0.5451125483669753,0.49406055436394275,0.5418710279348058,0.6027581329388413,0.5602993921657171,0.6578638117377009,0.5041343878077043,0.49292072970317535,0.535009606994237,0.6225682200575384,0.7122074569559104,0.6936621016518115,0.48726360388114276,0.5221953553235622,0.6009227517069684,0.6960503671341567,0.4919827241737315,0.5745025235531677,0.5041919389106901,0.6016838855573245,0.5097148187545764,0.6800183099401791,0.48493993788714934,0.49340929071666617,0.6651124734943104,0.6765778312074611,0.5024304027973616,0.6682149537209493,0.5083048489374257,0.6736302742747197,0.49901908381313664,0.5644997653839463,0.5122426564828764,0.5433611341423848,0.6224396942355743,0.5434650552988436,0.5094865209896741,0.49263237425524986,0.518466091784305,0.48417838255013523,0.648539869936384,0.6945976385325826,0.556752203724908,0.5891790866346884,0.5054520355870518,0.6044478620990155,0.5908367857346359,0.564174257733003,0.49022226645593875,0.5392144587514578,0.506132700083505,0.49044720229813177
0.48725661249708346,0.4701977635653232,0.5382913860475905,0.5180592561656773,0.4956285416802723,0.4821959542507564,0.5691200639610248,0.4801498999196152,0.6349708603543747,0.5257724177379358,0.4934630684691581,0.5983763346133026,0.538767027935982,0.5844040498964461,0.6154532578277317,0.5186637205306238,0.48368326623628866,0.5649628788020077,0.4888069522580551,0.48156314053031685,0.4772196399720087,0.5305027536715519,0.4765816702277654,0.6709904134425445,0.6809365080132748,0.48281758844085915,0.499439444493382,0.4708933967385397,0.473855276749525,0.4839891709587749,0.4939787876862683,0.5086936752047566,0.4831866813266735,0.5435904282846158,0.5795299409008534,0.5087791138940494,0.5219448373472446,0.5456744239487566,0.5697113018686595,0.4792383446120991,0.5020772526718602,0.4811204632020844,0.5496060043166924,0.4858445010713092,0.539513094982204,0.4716919770499661,0.5249730766534214,0.5423718130467955,0.7067946141618282,0.57032663582604,0.5039267113959995,0.5312737616449767,0.574918225290596,0.5187130539868174,0.4961905803245218,0.5031856786731305,0.49037771105907735,0.5051980038035936,0.6265695374172265,0.5874809494692168,0.5522380877258272,0.5614275875723767,0.6175545919151613,0.5102379749996069,0.6141203944250735,0.4931730189901504,0.48958945054104214,0.5924025090940649,0.5730905919094723,0.5562614819508153,0.49839847607097354,0.49737315541337274
0.5323960062554504,0.5431560686059713,0.5417888797883047,0.5501659872438469,0.5354952505180939,0.5202666116372824,0.5175920451402952,0.5372934478873952,0.5277548346156143,0.5254850219735615,0.5204928273872238,0.5331706510250162,0.5614671817733936,0.5726466980128946,0.5811205392495458,0.5813137324107142,0.5879908988914678,0.5945517166297571,0.5577699889982125,0.541679326486141,0.525819442162186,0.5427513543984702,0.5300933887541511,0.5589435720950018,0.5298916788778021,0.5575487416444981,0.5143069249654783,0.5304413203929967,0.544308788834,0.5402869546506984,0.5067061024290626,0.5387712057177445,0.514010581911292,0.5284756457831188,0.5431102118265233,0.5470576917179448,0.5438800745302697,0.5430682816780351,0.5356614465692671,0.5308316765191808,0.530153304761689,0.5228178443504542,0.5284893025671412,0.5254997493643127,0.5315615567122319,0.5581909466204695,0.532244638632101,0.5545882278273941,0.5335070426128324,0.5782803416329433,0.5607214358398815,0.5280763813365286,0.5552425283985649,0.5285636487660317,0.531369890304818,0.512362336596546,0.5371064884062191,0.551883678956058,0.5436747763678655,0.5357975423237619,0.5795802734015281,0.5551199908936758,0.5108040073664637,0.5254210245191575,0.5365432859316863,0.5606762470226917,0.5281904964673533,0.5414349177115859,0.5183148234862629,0.5340864443786796,0.5202586746611658,0.5153569882024479
0.4989130813255473,0.5640354412403876,0.49063353525865383,0.492677514994359,0.588271239226627,0.5517787106611264,0.5234803866941482,0.5726963882219904,0.4770725604840173,0.4797234108210241,0.48027059416892587,0.5608253926770373,0.6244505370354658,0.6053486108950006,0.5070009312529634,0.5037970934298204,0.482066320460447,0.5086924112031389,0.6448175256683609,0.602848275910578,0.5913331540672089,0.5072710395849749,0.5226891754181098,0.511732801703516,0.4767516274786052,0.6093146925837001,0.4912849131573459,0.5901904574364851,0.630719962783265,0.4809402651588311,0.49430498446439913,0.5222491768126878,0.48438191140880404,0.5199098191602263,0.5318180757577582,0.562520750737972,0.5350055253219469,0.5111500033008519,0.5635695074684511,0.5152145558202326,0.4702172418366263,0.5191003336775625,0.5290578283358464,0.6081463880237372,0.5143175224812453,0.5871975101143183,0.47781592804088246,0.4807743279191653,0.5279886691096658,0.675346223673419,0.5854060019988716,0.571820506531137,0.554177491235263,0.5783250368379317,0.48484590620029966,0.4937252467484326,0.5016297262202667,0.5849581143424325,0.5039539594998874,0.48491629166187655,0.520967787344638,0.5423499599444112,0.4746320929814446,0.5180348299693598,0.5657081572030058,0.6954459055115014,0.5297043190257275,0.5511982402443383,0.4714292752159732,0.4993043166118823,0.6438346886539008,0.5084508649014853
0.5423377140351687,0.5433180047221814,0.5206496323117106,0.5889265039261691,0.5515327824900521,0.487711450504377,0.5095049668031997,0.49797510356157626,0.47122634473367997,0.5525980726570977,0.502556790398424,0.5050407131037011,0.48269600664622436,0.5566911425849005,0.6643883962735763,0.48407977713794637,0.6692173841701463,0.7169398805451259,0.5237323230263643,0.509725261436135,0.48534655887792055,0.5072861378006519,0.6532013689682653,0.684207690303601,0.601099329785615,0.7336221936811579,0.4770308418576706,0.4927839816984419,0.4884968092601043,0.6038849707455202,0.508990446415144,0.48559082259959285,0.4894051561449779,0.5069418390322693,0.6878205718679787,0.6320286055219518,0.7046984019968814,0.6039752580553432,0.4879939278867842,0.46671551217797275,0.4726326075965588,0.537865864133951,0.5195643738633614,0.49617539761518875,0.5346442815213243,0.5341333097614412,0.5124055540121704,0.5454479462698085,0.4777572915158809,0.5657694745889251,0.6143225530751906,0.4793365832787339,0.49594541007900866,0.5301264521890551,0.49492808082355183,0.5530430526164499,0.6275580679200283,0.5731089481247506,0.5139395236205739,0.5451139037510889,0.6756748259765228,0.6157699824479609,0.506431335185155,0.48680256306475156,0.48202177434728705,0.5520076568436003,0.48948085309990264,0.5002753856935813,0.47319742113501634,0.6351570775910392,0.5307321199287615,0.6065885587006293
0.5889126564638204,0.4845889902786046,0.48402395769175366,0.4940852987768983,0.5615994558598375,0.48894660299250325,0.4971455419104068,0.572866627871111,0.5431586136128027,0.532061473682814,0.4717940589771278,0.49528230072884377,0.7033060046881088,0.591431106886885,0.6990194518466245,0.5712889697869461,0.49387511267621226,0.7119849399567486,0.47482216050816,0.5952726849640617,0.4918711461844185,0.6566636903456274,0.5249328155088617,0.49793254455954045,0.5178925280191293,0.510589890516786,0.5517709550359331,0.5731391236044395,0.5907035627425872,0.4825614253596841,0.5757442743431737,0.5365451590234431,0.5351595600105366,0.6410103410934916,0.5848370677476307,0.5305227901140191,0.5488429635559966,0.4818676385398607,0.5478503811619471,0.5292330335319384,0.6516266238782011,0.4922158622221288,0.5943467637384039,0.4835563262681018,0.5301833195125768,0.5245622399279224,0.48488955954318086,0.5296104262615595,0.48324028185624757,0.6109485684083893,0.6389896394242871,0.4768629736381496,0.5509148675803595,0.47472480695394426,0.5920277187550884,0.4926444974292643,0.6230625155329742,0.5695816399579672,0.4861704232442377,0.5731212606524947,0.6688119504335208,0.5109897808834312,0.5008636749303306,0.5313843431784709,0.47556148459626507,0.500206527629937,0.48607256925010606,0.5133365257955298,0.4757449974240943,0.5047987161669869,0.5151299789415003,0.5019534626741268
0.5004483213286436,0.5255454923260849,0.4971874715121098,0.5218124700963123,0.5045487677997179,0.5438575218814623,0.5532393030668853,0.6019866131640422,0.4832911181151552,0.4878182058157245,0.49600434365900165,0.4899947097925928,0.5002952734361334,0.5226537444380011,0.592936309712515,0.6613037770598335,0.671954753380031,0.6973868192088398,0.5486974590806354,0.5557094209514238,0.4946651726880412,0.590328164001695,0.5228101882638356,0.4863624070803791,0.5403619611755655,0.6323059949397332,0.4739154525968276,0.5024707747737283,0.5064370086532135,0.5163785619482278,0.5144681112938718,0.549208253042596,0.4838071147327324,0.5266856490479763,0.47288975206125966,0.4927308459950506,0.5425251450968337,0.5493166913228855,0.5079997157972755,0.540755261745485,0.503998461514254,0.48600375637839155,0.5254060525791772,0.5192452259563829,0.4887658951164731,0.5117329828608085,0.521637210169509,0.5338929662290218,0.5220374978593951,0.4893477599145445,0.5584898276927465,0.4857023460298879,0.47019889612958876,0.49571571480694515,0.4670005915460575,0.48766262632044793,0.5847104717867664,0.5940507811462049,0.485153249491788,0.5022638480630468,0.6171119369317426,0.5873067631079254,0.5278106901147707,0.4913054449144093,0.4702409322024936,0.5424383712581127,0.49290265735509153,0.48233891190535905,0.4727128484192576,0.507963634050546,0.49628872850737266,0.5041299981069532
0.5389546560179298,0.48667033761577533,0.7639942635360424,0.6105532514703784,0.5056562952787685,0.49040310308694657,0.47567924748361873,0.4603528895658039,0.5986282676309659,0.5501834153893558,0.5504476841370056,0.5525835682198276,0.5901239208110077,0.5742697131600647,0.6509152107165649,0.6051206395756836,0.609945045931169,0.5738954510369072,0.5113815979458374,0.5110439423024644,0.7684607106339085,0.5277294903614587,0.4955106487584907,0.5067566572947043,0.4827256197320833,0.5120844411170163,0.5918653082672618,0.554336403150654,0.47039573501384596,0.47841415193203174,0.4752447750167644,0.5747403158410795,0.5084680372372901,0.5242701707398357,0.5056942699039816,0.5709518249254224,0.606481693421782,0.5395700090227153,0.6633580925478225,0.7703694078289406,0.6344056205189509,0.5261971239958949,0.5081761606631919,0.5158067975892653,0.7651583057693414,0.47407303902190046,0.5698945692168844,0.5652341797460726,0.4863427857965207,0.6234716717406258,0.5330468476450443,0.47666906173702583,0.5326525202140868,0.4666852955682967,0.5046008758837703,0.4773725503890103,0.5104446704566078,0.46116058605023547,0.4993184494340519,0.5007270539431243,0.47671683745277643,0.4986292890729568,0.4703665383828092,0.5423592656974797,0.608240948493633,0.5379140203526117,0.5820611689666019,0.5963214025421444,0.5381600335407696,0.526951787450155,0.5106751722060273,0.5029937567655852
0.558660844036789,0.6746864023358966,0.6065773636016571,0.5396502187809991,0.5025633702499196,0.4868196601377918,0.48295081259841727,0.5087524821976023,0.5521623218945344,0.4775599432413672,0.48726269900101576,0.4817932534107115,0.6889063895332367,0.6236230168472854,0.6861433093400711,0.7523699545604332,0.7581249220592136,0.5223744133752053,0.5394075573374333,0.5499285351496264,0.5066888975917213,0.5079458005167311,0.49216858536385766,0.4711005631504057,0.5124845138932907,0.490769096749737,0.5689730762803742,0.6198210555352099,0.550428389737753,0.5958103251815837,0.4812151229936229,0.48051476769828716,0.5044090094049246,0.531648174628651,0.48154184561959185,0.4940917712747533,0.489553201585864,0.4997104933352337,0.6034370134201412,0.559665573463272,0.5490106259820273,0.48721134464887383,0.5182013748249212,0.5594556343176948,0.4904242034385827,0.4917788992339034,0.550315966552491,0.4877620248188931,0.5222498924957347,0.5248258157522298,0.49752855898128934,0.5057053641826527,0.5244357258977301,0.5294581025499234,0.48013857510345154,0.4780331453483318,0.5157493438181403,0.5715215377860663,0.5261203979187205,0.4816793096390587,0.5503460869319051,0.6628044051237378,0.48711721368321703,0.4915107632500996,0.5409968689611839,0.5094425169266826,0.5223476416133054,0.48363771957878676,0.48463047063418274,0.49569322683624994,0.5087922724228361,0.5113894370292742
0.4904984644067365,0.5951412051631302,0.5436427662997362,0.5147909202725558,0.5385654849686325,0.512046549981341,0.5400060441250183,0.4937913554661288,0.47408977388194495,0.48330820429449933,0.5610455773779653,0.5300259351087626,0.48610930161266563,0.5668481567017948,0.5012011573943753,0.5321621263880506,0.567995045991247,0.4964828635344728,0.5606406943638329,0.510663884006191,0.5146580372605257,0.48162059169934324,0.47582348372192823,0.5913020421111086,0.4737702165271036,0.5650067321511214,0.5256869358031357,0.5937064083318265,0.4817531427993827,0.5636380478161864,0.48344451251848536,0.5763979855612538,0.49711983122062375,0.4786980338101949,0.4811877861449428,0.47950881586655,0.4867318523241161,0.4790114739826319,0.5665670508067606,0.48931007462712295,0.5558139648698259,0.48053880002009375,0.5283430206836754,0.6107774527717732,0.5032491944182315,0.5433514449372188,0.5890072506394325,0.6490866315823289,0.5421894900504405,0.6257643409808643,0.5841826858114839,0.5890682731728054,0.5477869785306572,0.5301011440819745,0.6127069378561554,0.5875832900555636,0.546502971014205,0.5949497874937358,0.5943222380667865,0.5195746893220301,0.6204446535276888,0.5044922150308585,0.4816686511480873,0.49116699373307326,0.5135282463816395,0.7036913502824865,0.5602263593521717,0.6734894231769055,0.5661107992066928,0.6028665759246109,0.5263932152248173,0.4835904223016853
0.6197387378128798,0.5561940667881207,0.7060696839711741,0.6957037254688426,0.5000820711491315,0.5589573896046967,0.5961292643465091,0.48980985142353867,0.6669845434162548,0.6057339077067961,0.6366236287115072,0.5644234422238119,0.6362753189795571,0.6995576378325452,0.7011580371778209,0.663933180610519,0.6626000598485444,0.687766961571241,0.49427868498110106,0.5909069259576092,0.6465140144695709,0.6205937299525073,0.6546527242580396,0.6589484936850282,0.6136968154159754,0.4840626385199426,0.5993032162319426,0.5840065994850844,0.7208794492192018,0.5588063493300467,0.5062719595401631,0.5812523178588224,0.6734213437607914,0.5558190392303999,0.6668000405433244,0.6080435575346758,0.6607086740815676,0.5665926825193435,0.5957304393489242,0.625408408114781,0.6732215539272736,0.6361920683999156,0.48533546052340737,0.4903882359898496,0.4799780137024647,0.5415246229321035,0.5782170441186851,0.5309324304313982,0.5606568845159856,0.6198316721176449,0.4743772882454104,0.49348230470017185,0.6694466302127446,0.5274839810085397,0.575396103839865,0.4965715495296214,0.4986230845252065,0.47974500803379627,0.6148678739314295,0.5158676099019199,0.7010086823850802,0.4818110598644988,0.5630066874186168,0.5771526925328103,0.653567919398876,0.5509281313712422,0.6394340304755214,0.5574554142704272,0.6223040454246216,0.5620832000276481,0.5316674235162775,0.5646153332124678
0.560712701298079,0.4722223126951671,0.6385333793300115,0.4773562629118194,0.5033036153482598,0.5736910745311626,0.4930642789782945,0.4751127042308733,0.528618042359707,0.5019614624522046,0.5440608216223682,0.47219174060443464,0.4771604570012772,0.5154642744589677,0.5972534525376186,0.5134504853438825,0.5767846993666191,0.6859384153786368,0.48619760357295033,0.5264137060642278,0.49462977278867176,0.5592753232294878,0.5331007276234022,0.484689728676612,0.477746495724174,0.5035501511051249,0.48523432132517313,0.4780363469793303,0.5526032136761985,0.5182437319621818,0.4755528639932697,0.48456545503651355,0.523806022426148,0.48453629492268785,0.6091485350061292,0.48165350511856975,0.5112929305462487,0.4769543116004747,0.5561655163474157,0.48515618046947423,0.600462878929704,0.5106812127454892,0.5612147950081903,0.5800271730129944,0.4839161455873916,0.5708848456093609,0.5383451815650911,0.5268246802912426,0.6280989427534116,0.5044004068549192,0.5310611841044428,0.6124917373821576,0.5467479703782941,0.587069207935598,0.5559701640830956,0.5138143542784533,0.5923844937583331,0.5223408256014731,0.5363843039391173,0.6110853310258643,0.5585572590532584,0.570632135390193,0.5002210770555852,0.47861849184374944,0.5771465410530577,0.5476163481948307,0.5309969878474268,0.5259388789083227,0.48210218829326,0.48721062563225837,0.5106192592598026,0.5077375021859554
0.572711958011367,0.5502276043807706,0.47957842947477425,0.5429965260916383,0.5619204265975615,0.4655754205369905,0.5157124198005292,0.5921116889755019,0.48068089435415345,0.47220068244153596,0.47679098798597946,0.49574606877085825,0.5764209979610877,0.6590848003439981,0.5883918022860861,0.593951717831841,0.5866736254035909,0.47087194478087663,0.6618782302547228,0.5453419493647853,0.5215386308145763,0.6529628525316262,0.48972653211298506,0.5086952644421706,0.49604290066294515,0.5064472496201591,0.5477550155667703,0.5905695012626113,0.5472895886001639,0.4791177268847034,0.46906490931026407,0.5291307567263521,0.4880558388248153,0.5610414502872983,0.4818700689553214,0.4894795966984005,0.5057592991804946,0.5390142540370298,0.49389319015378275,0.5196832953895107,0.49890806307443175,0.506709263123158,0.5554359702986684,0.5601485181376795,0.4802445650024449,0.7956117638117697,0.5036417390132747,0.6011267714027044,0.494664056875042,0.5603971160382257,0.6532976479620479,0.5918762182735895,0.47553946084791043,0.5319729113039334,0.5157591261525383,0.5213805309570771,0.5915307704356308,0.6314150111766201,0.5297009497633551,0.5017134721642977,0.6872469481807648,0.6286385161527835,0.5126070197348886,0.5470715400212885,0.4795951500624799,0.5648826994731286,0.492801625197322,0.5363862705263236,0.5287700103780733,0.5491626164187156,0.5135568468373721,0.47397511488470495
0.5412644845836325,0.632788421054712,0.4958189336488238,0.6134442111002459,0.5807772628378511,0.5243210605034853,0.5197014315214771,0.5365689269954601,0.5331026607195206,0.5340234672583093,0.5320161759322207,0.5377840534951599,0.4862638033375575,0.4937543620953268,0.48444261377287284,0.5623952303408716,0.5338741338786411,0.7064568957634176,0.8092787884917915,0.5175780827239621,0.4869903508774021,0.505060614071905,0.506325080878243,0.6162496741942066,0.5641303757398892,0.6090679988336867,0.4942725493369359,0.571752200522029,0.5937708993843971,0.6356755749659582,0.47267362630756365,0.542699197460868,0.5018673010914005,0.48731289341215434,0.5602905022852255,0.5729044026119026,0.54203801278142,0.5338061429752883,0.47956811785210685,0.5325822949077978,0.4695827835374914,0.5132049217090696,0.5066578441421311,0.5798173222832175,0.47927918267370895,0.7116256682416375,0.5700189541588958,0.5262961302271825,0.48492769396757857,0.6671534101211681,0.6100285625789399,0.5726198818267954,0.5997997356257377,0.5295849343541099,0.5301738293497789,0.5324959655401978,0.47350813976846207,0.6369822703408895,0.562959193346946,0.5062874557557608,0.4823999144242041,0.48344444821529126,0.5139776510720325,0.5123562040794589,0.5124170592527837,0.6609044859627223,0.49330363091350515,0.6278688471449692,0.6171554118780846,0.4735068542102203,0.531949227856763,0.48208122227196315
0.48958152059447396,0.48409025454341703,0.48102104689216096,0.5052153775246886,0.49216909587508395,0.532682290507745,0.47788856375190086,0.5622111389859089,0.5442476964476568,0.48246824709689223,0.4870492774787043,0.5908479500041356,0.49138506029739126,0.4806643471415911,0.569814583275297,0.640839942028501,0.6479084014282182,0.4763506760657365,0.5216598299888924,0.5385628519347438,0.5237363217437596,0.4818499030354331,0.48605804272731046,0.5868025883228402,0.5955024477136811,0.5507642881307784,0.47380605097786344,0.49288196838067416,0.47392003477582567,0.5621292326706194,0.4836785192667913,0.5491440130179368,0.479872573886148,0.49410381182435476,0.5242710309611176,0.4936865083945041,0.4778405618096687,0.5576264058438392,0.48277736927616494,0.48719512273598653,0.4955110390293394,0.4876746539322084,0.540046518244697,0.5205297132432116,0.4852203735867917,0.5859731364662,0.531085368987054,0.5671840227053155,0.5703129988436477,0.6065684653265183,0.558238259560992,0.4982693999036295,0.5619631849181963,0.4888245487783984,0.6073553948953451,0.46957593866499936,0.5364288997180874,0.5551667268884218,0.4928862051084511,0.5250508707324676,0.5798188128449813,0.4917701120716065,0.48998982413725223,0.6106303622748153,0.5303016586541005,0.5118733926234578,0.5076372610256774,0.48329285302146774,0.5039705782643582,0.6143003763634817,0.5169467663215873,0.49114194620219714
0.47483988800136423,0.5431560686059713,0.5033355044282892,0.5501659872438469,0.5012813792569274,0.5202666116372824,0.4961228477907862,0.5372934478873952,0.4846090367366532,0.5254850219735615,0.6074509489740326,0.5331706510250162,0.6237365300655018,0.5726466980128946,0.516409520502164,0.5813137324107142,0.526152075864668,0.5945517166297571,0.5314541857528022,0.541679326486141,0.5179267422985045,0.5427513543984702,0.6568083356851018,0.5589435720950018,0.5170498260795727,0.5575487416444981,0.48312999432236575,0.5304413203929967,0.5290136583899966,0.5402869546506984,0.5384178755307437,0.5387712057177445,0.6096764666979348,0.5284756457831188,0.4759750413861091,0.5470576917179448,0.6248600505073528,0.5430682816780351,0.5465168975523315,0.5308316765191808,0.5076257019672614,0.5228178443504542,0.49390524775916794,0.5254997493643127,0.5016105237374425,0.5581909466204695,0.5908902837899493,0.5545882278273941,0.6130674311307889,0.5782803416329433,0.531532458711219,0.5280763813365286,0.501542103732222,0.5285636487660317,0.4895764950237835,0.512362336596546,0.5660995832504986,0.551883678956058,0.4775625265153141,0.5357975423237619,0.5059852351637658,0.5551199908936758,0.46767467324716244,0.5254210245191575,0.48210927931097336,0.5606762470226917,0.5726385497906809,0.5414349177115859,0.5605649378304493,0.5340864443786796,0.5092537176148695,0.5153569882024479
0.4913670631050506,0.4993968334588625,0.5130091126228022,0.5550918873343132,0.5362521003958651,0.49774955040128727,0.47842432091644094,0.795780165246844,0.49074101157301486,0.6342574944492506,0.5260172713631865,0.5713950410865316,0.5096829028800743,0.5566427400043514,0.5408052214498028,0.7273577107691975,0.7423667108925697,0.5379630648876248,0.5119262428183262,0.4903372268464746,0.47780930126310894,0.49029617875517434,0.4822884947515803,0.540660920612428,0.4774134744775417,0.49967533180496354,0.49797689443976756,0.49885475967493537,0.47977673677969673,0.488923164350354,0.48943823717657875,0.5536303861660049,0.4754170630136348,0.6551586246885194,0.49712103660520435,0.6410682563366606,0.5053687481103567,0.5866180512693859,0.49911411928219007,0.47471706809668845,0.4966330279605035,0.5965688759964549,0.5313104152336044,0.5092311045210306,0.5991551183441003,0.5260124159290069,0.5739925293832991,0.6768109193620339,0.47296496134923355,0.5063021125350226,0.5756701536910859,0.5009912672997319,0.6910812359850508,0.6760640652983531,0.5401628751538857,0.5851733941082398,0.5197220536007672,0.511060327826561,0.6150806479501297,0.7565881578503653,0.560038387392457,0.6215987457822807,0.5616632926782791,0.5294095477012762,0.5768950187286518,0.6499934813705439,0.5473822939896569,0.5072899628492586,0.47682761352148,0.5689206523933233,0.5149670119174872,0.5033553511385142
0.5323960062554504,0.5547559749214688,0.5417888797883047,0.5570778593087795,0.5354952505180939,0.5088230989610207,0.5175920451402952,0.521884703440295,0.5277548346156143,0.5019918134702126,0.5204928273872238,0.5628674651211899,0.5614671817733936,0.615016639644087,0.5811205392495458,0.5872869788397679,0.5879908988914678,0.5682217771686435,0.5577699889982125,0.524991337667454,0.525819442162186,0.6106797874465074,0.5300933887541511,0.488768028813691,0.5298916788778021,0.5788071578586724,0.5143069249654783,0.4817018859349897,0.544308788834,0.5906941328219563,0.5067061024290626,0.5525736103266257,0.514010581911292,0.5445865968100432,0.5431102118265233,0.49115191251048385,0.5438800745302697,0.6048100203825019,0.5356614465692671,0.4974890196470061,0.530153304761689,0.5462474831872879,0.5284893025671412,0.4849061554555081,0.5315615567122319,0.5069607868578361,0.532244638632101,0.5584679627741069,0.5335070426128324,0.5403819206145877,0.5607214358398815,0.5066747408603252,0.5552425283985649,0.474965830084847,0.531369890304818,0.5381080945624591,0.5371064884062191,0.527586793155038,0.5436747763678655,0.48297321492219414,0.5795802734015281,0.5280817587718947,0.5108040073664637,0.4983758054584027,0.5365432859316863,0.499661392155332,0.5281904964673533,0.5343894507239673,0.5183148234862629,0.550932870147012,0.5202586746611658,0.49132501937554035
