ME_POz-Fz,MD_POz-Fz,ME_POz-Cz,MD_POz-Cz,ME_POz-C3,MD_POz-C3,ME_POz-C4,MD_POz-C4,ME_POz-F3,MD_POz-F3,ME_POz-F4,MD_POz-F4,ME_POz-P3,MD_POz-P3,ME_POz-P4,MD_POz-P4,ME_Fz-Cz,MD_Fz-Cz,ME_Fz-C3,MD_Fz-C3,ME_Fz-C4,MD_Fz-C4,ME_Fz-F3,MD_Fz-F3,ME_Fz-F4,MD_Fz-F4,ME_Fz-P3,MD_Fz-P3,ME_Fz-P4,MD_Fz-P4,ME_Cz-C3,MD_Cz-C3,ME_Cz-C4,MD_Cz-C4,ME_Cz-F3,MD_Cz-F3,ME_Cz-F4,MD_Cz-F4,ME_Cz-P3,MD_Cz-P3,ME_Cz-P4,MD_Cz-P4,ME_C3-C4,MD_C3-C4,ME_C3-F3,MD_C3-F3,ME_C3-F4,MD_C3-F4,ME_C3-P3,MD_C3-P3,ME_C3-P4,MD_C3-P4,ME_C4-F3,MD_C4-F3,ME_C4-F4,MD_C4-F4,ME_C4-P3,MD_C4-P3,ME_C4-P4,MD_C4-P4,ME_F3-F4,MD_F3-F4,ME_F3-P3,MD_F3-P3,ME_F3-P4,MD_F3-P4,ME_F4-P3,MD_F4-P3,ME_F4-P4,MD_F4-P4,ME_P3-P4,MD_P3-P4
0.5449608570344864,0.47805123063467886,0.4721182175688741,0.4869084586783382,0.4550718441698858,0.47303665828151803,0.46206046628004777,0.5733329013745013,0.46625328383913384,0.4906132757260613,0.497846905908677,0.48032131141239615,0.5461905927216777,0.5631275341214772,0.5314041432878531,0.4891408186916485,0.571630356766064,0.5480466689946905,0.47008584632064937,0.494832558353381,0.4781445522459993,0.5293565005470902,0.46570859740984644,0.6361868220105464,0.5171820908849308,0.5656314663164397,0.4638627405463101,0.5009843505710306,0.6700448514582638,0.6078051291934572,0.4877626159775209,0.5261932845722544,0.544136638765794,0.5024603821316364,0.46427634604893125,0.5819996280024472,0.539459507686705,0.4868335398991476,0.4735812944449613,0.47026022004601564,0.4833686037900585,0.4675406506028136,0.4655647790892481,0.48190262458865296,0.47784226654743267,0.5628579965023275,0.4755623870671227,0.49030624077503565,0.5021329720243561,0.5363100309958625,0.4527306276158367,0.5258485956236436,0.4651368108588169,0.4957378972597466,0.5197388524653055,0.48990153518862345,0.47191569659135474,0.5495696981680399,0.5451986166589793,0.5023020337918609,0.47016897430779225,0.5668699788638575,0.47718994955330807,0.47548125164261484,0.47515496624823805,0.46859551157691975,0.46359057151188926,0.48581963070157846,0.6022442291547042,0.4879773221936465,0.45887283277617297,0.561925175772757
0.6116790308976726,0.651604826291927,0.4498804918477098,0.47030765736716773,0.4675997969605789,0.4895093020387689,0.444195525803399,0.5074940968307756,0.47548337319819883,0.523347780415284,0.4656593017910797,0.5295071626460751,0.5964768000187648,0.5067596516258759,0.49185631975996824,0.5096377252187936,0.5735795494657794,0.6198293305339377,0.45424110361331316,0.530515240124567,0.4527167218132158,0.5308934061629069,0.5180634132794644,0.5312358257048214,0.47643664572762273,0.49717550752689454,0.45446844129303365,0.494830805606009,0.4538682135331418,0.4661866752406093,0.48609659615971734,0.4742362486026391,0.4989013616451176,0.48154039608726834,0.47407086690228056,0.5126882660929926,0.47743218314928787,0.5027156050288859,0.4666283706433603,0.4837656898606271,0.46007668229450277,0.4834890408633152,0.45567604284203267,0.501860249186997,0.5064390780921876,0.5007822171220658,0.451097348770739,0.5389193673334176,0.5911208512211055,0.5532309984660791,0.4604881470035628,0.548467694723703,0.4495757414863741,0.5255813220848975,0.5321920216173789,0.482344022122472,0.4544142252989317,0.5468248851474486,0.5729145397644564,0.507536579331016,0.472397070500863,0.481222859465485,0.4658087533673723,0.4743649396601851,0.45763537170327806,0.5272554817177821,0.4520858251426717,0.5318133075464185,0.4780959817478429,0.4856309636558052,0.46961520213498087,0.5202406976433405
0.44838240866162604,0.5103223070670463,0.45526169945233824,0.5075941242710096,0.41279859852150813,0.47324708096926804,0.5856036206764776,0.4795893792806497,0.45579992251325635,0.47919104409021157,0.4611611594801342,0.5455103783240555,0.48574038629496474,0.5109283398332615,0.6049042479549419,0.5570524220821005,0.46931133354631044,0.6158025171711069,0.6796847327480983,0.522678313082781,0.43524908559513453,0.5278992154923186,0.5068773654110149,0.5445472707580501,0.460931910597345,0.6038698596109876,0.4952138749209108,0.4945043380777417,0.4318801875921279,0.5296852817850044,0.49457972198593425,0.5156253814336217,0.5839145573187529,0.4795279693640703,0.4578750499019671,0.5542356238763891,0.7117013733657922,0.6785478232653228,0.45102126441259166,0.5573589052321605,0.4707431059122096,0.49495901387975777,0.416405796227479,0.5032671271726807,0.6662695023332998,0.4882952982016718,0.488989764874978,0.5179125338234559,0.48087431232731137,0.5333195927961374,0.4141333308973994,0.5017907692009808,0.4042695589080514,0.5382138873289065,0.5932890507100357,0.4888038675027557,0.4622777053715262,0.5779365808665812,0.7570337974734538,0.5916928896236563,0.4423902181858353,0.5148425906857085,0.5008177678126053,0.6275573652074504,0.42642695863165797,0.5323705390910835,0.46195796022791236,0.5398344450636864,0.4788792431962013,0.4997056868190581,0.46012575078832313,0.5884685549678262
0.5566205128614012,0.5861278344298994,0.4750684210835463,0.7609022330928957,0.5369008034613472,0.7437131412761164,0.47018291442798055,0.4861085931082914,0.48070201061582474,0.6694010987510919,0.4736860987787331,0.5657255481318763,0.6963309188511202,0.6540173937331346,0.4814202772153041,0.571128645577109,0.5044329215263352,0.5865147059870263,0.629722087248257,0.6929938658658961,0.4756174288328632,0.49406055436394275,0.4856842523070811,0.6027581329388413,0.5723935934168454,0.6578638117377009,0.4930552324107123,0.49292072970317535,0.5625894865139736,0.6225682200575384,0.7300331096385486,0.6936621016518115,0.49077086480080634,0.5221953553235622,0.4630064830021122,0.6960503671341567,0.4964918604878824,0.5745025235531677,0.5337228468192932,0.6016838855573245,0.4898225208350533,0.6800183099401791,0.48687411290582233,0.49340929071666617,0.4523970151102972,0.6765778312074611,0.4804119414917502,0.6682149537209493,0.557875852130674,0.6736302742747197,0.4972696129789185,0.5644997653839463,0.47103678450901953,0.5433611341423848,0.46876712410218196,0.5434650552988436,0.48833797744952956,0.49263237425524986,0.5582153026770332,0.48417838255013523,0.6847522666120057,0.6945976385325826,0.4645199569060452,0.5891790866346884,0.4911421248048835,0.6044478620990155,0.4708774196367952,0.564174257733003,0.5029985145591902,0.5392144587514578,0.4927960473521293,0.49044720229813177
0.49719972719770206,0.4701977635653232,0.5465299915027323,0.5180592561656773,0.486307116690866,0.4821959542507564,0.5708541876875688,0.4801498999196152,0.4421493867461888,0.5257724177379358,0.5348368334141521,0.5983763346133026,0.5147506627485998,0.5844040498964461,0.6269552092491308,0.5186637205306238,0.4883224938796573,0.5649628788020077,0.4839658828224976,0.48156314053031685,0.47158028843608957,0.5305027536715519,0.4973313530898123,0.6709904134425445,0.42794388484679163,0.48281758844085915,0.5123526573070577,0.4708933967385397,0.4700923712554329,0.4839891709587749,0.48723888429354467,0.5086936752047566,0.4833165195580447,0.5435904282846158,0.4613818640249283,0.5087791138940494,0.5142959821927546,0.5456744239487566,0.5582508747110471,0.4792383446120991,0.4767874424240791,0.4811204632020844,0.44089219548199515,0.4858445010713092,0.4761485555074677,0.4716919770499661,0.4963835098400307,0.5423718130467955,0.7402976111272055,0.57032663582604,0.449485753207478,0.5312737616449767,0.4597258076160248,0.5187130539868174,0.5410761687584085,0.5031856786731305,0.47543987000465027,0.5051980038035936,0.6438001156293505,0.5874809494692168,0.46090472083639505,0.5614275875723767,0.4499589335564328,0.5102379749996069,0.442877571233837,0.4931730189901504,0.48566035638881433,0.5924025090940649,0.6148970691388176,0.5562614819508153,0.4625675174737377,0.49737315541337274
0.4887951782469492,0.5431560686059713,0.5195695530190074,0.5501659872438469,0.46287786162600275,0.5202666116372824,0.4934269773606745,0.5372934478873952,0.4710107474900511,0.5254850219735615,0.4905051479403414,0.5331706510250162,0.5893847544284946,0.5726466980128946,0.6109123009787739,0.5813137324107142,0.5889778512692407,0.5945517166297571,0.5408060361366793,0.541679326486141,0.5025083211438055,0.5427513543984702,0.49852870133085925,0.5589435720950018,0.4959790988323811,0.5575487416444981,0.4786349774298705,0.5304413203929967,0.49172319008708965,0.5402869546506984,0.5060421118394715,0.5387712057177445,0.5240427465229052,0.5284756457831188,0.473221146340587,0.5470576917179448,0.5080917934145106,0.5430682816780351,0.5060036058779599,0.5308316765191808,0.5139769164174526,0.5228178443504542,0.45693474180554894,0.5254997493643127,0.548761194924025,0.5581909466204695,0.46710976383539365,0.5545882278273941,0.5655157746245584,0.5782803416329433,0.44654256926066027,0.5280763813365286,0.45151231158585475,0.5285636487660317,0.546777476532403,0.512362336596546,0.4586005408315449,0.551883678956058,0.5823675763504558,0.5357975423237619,0.4851683870580313,0.5551199908936758,0.497238473802809,0.5254210245191575,0.4585506813171268,0.5606762470226917,0.4604816664118732,0.5414349177115859,0.5145730759663235,0.5340864443786796,0.4870643502587305,0.5153569882024479
0.5219034091214465,0.5640354412403876,0.4686999771198955,0.492677514994359,0.4486584277989075,0.5517787106611264,0.4542950123060119,0.5726963882219904,0.4810239439250507,0.4797234108210241,0.49860204206674485,0.5608253926770373,0.6532282494213556,0.6053486108950006,0.5214930722899837,0.5037970934298204,0.4943473084506829,0.5086924112031389,0.6692159181995178,0.602848275910578,0.4423999150898748,0.5072710395849749,0.5919892817964729,0.511732801703516,0.4963032981104747,0.6093146925837001,0.46910978613624854,0.5901904574364851,0.42696419920029827,0.4809402651588311,0.475252808150353,0.5222491768126878,0.4999656372469697,0.5199098191602263,0.4610679545477024,0.562520750737972,0.5896183040322727,0.5111500033008519,0.442453175013219,0.5152145558202326,0.4956498734399045,0.5191003336775625,0.46241476586984503,0.6081463880237372,0.5756342346426815,0.5871975101143183,0.4846343631813649,0.4807743279191653,0.4659210397841755,0.675346223673419,0.44997821043128905,0.571820506531137,0.4396440684857277,0.5783250368379317,0.49122893113551436,0.4937252467484326,0.47400995445109445,0.5849581143424325,0.5629459420906673,0.48491629166187655,0.4648923348182851,0.5423499599444112,0.4895705496510631,0.5180348299693598,0.44876711791306956,0.6954459055115014,0.44531125622371803,0.5511982402443383,0.4781692316712488,0.4993043166118823,0.6461598105525942,0.5084508649014853
0.46047417352996345,0.5433180047221814,0.5920533693154997,0.5889265039261691,0.4529093139107078,0.487711450504377,0.5354781389156524,0.49797510356157626,0.47206268450954914,0.5525980726570977,0.5080114833166166,0.5050407131037011,0.46447910749338295,0.5566911425849005,0.6855972353678426,0.48407977713794637,0.6246718124834285,0.7169398805451259,0.5597230256675431,0.509725261436135,0.4727158797112505,0.5072861378006519,0.46493187729285934,0.684207690303601,0.6494400605712446,0.7336221936811579,0.4841165219813316,0.4927839816984419,0.46868315733989163,0.6038849707455202,0.5301186473657297,0.48559082259959285,0.5029473962326947,0.5069418390322693,0.43659955697171915,0.6320286055219518,0.6984550751913388,0.6039752580553432,0.4815484696321758,0.46671551217797275,0.475376857858988,0.537865864133951,0.45504326892344515,0.49617539761518875,0.4740223488802215,0.5341333097614412,0.5397816152922431,0.5454479462698085,0.5065834601521699,0.5657694745889251,0.4328827205009687,0.4793365832787339,0.4561057087570445,0.5301264521890551,0.5314121688448805,0.5530430526164499,0.4224005987299906,0.5731089481247506,0.5696133505143174,0.5451139037510889,0.4431444606008356,0.6157699824479609,0.5330841666669424,0.48680256306475156,0.4927756603472334,0.5520076568436003,0.4636387292273393,0.5002753856935813,0.48084341667054964,0.6351570775910392,0.4239623136998225,0.6065885587006293
0.44306357411253916,0.4845889902786046,0.47140195725213296,0.4940852987768983,0.43536001810128394,0.48894660299250325,0.4449295291150729,0.572866627871111,0.45119567290132273,0.532061473682814,0.47945741207129366,0.49528230072884377,0.7736302961420967,0.591431106886885,0.7262901585845918,0.5712889697869461,0.4713119300967582,0.7119849399567486,0.5065524540594458,0.5952726849640617,0.5361899557931868,0.6566636903456274,0.5485351805237979,0.49793254455954045,0.46996396856097694,0.510589890516786,0.450614347194786,0.5731391236044395,0.44204563339462455,0.4825614253596841,0.45263130059451695,0.5365451590234431,0.5800454216526865,0.6410103410934916,0.629048698334249,0.5305227901140191,0.45547817098142884,0.4818676385398607,0.44273141143857575,0.5292330335319384,0.6530407509920824,0.4922158622221288,0.4525332343351972,0.4835563262681018,0.563856079795755,0.5245622399279224,0.4919000717677049,0.5296104262615595,0.47671698285243647,0.6109485684083893,0.428211525447275,0.4768629736381496,0.46153782974542545,0.47472480695394426,0.6264083682378868,0.4926444974292643,0.4199901013558346,0.5695816399579672,0.4849432456339534,0.5731212606524947,0.4291068442904127,0.5109897808834312,0.45686564741075253,0.5313843431784709,0.4689479552751622,0.500206527629937,0.47359295173807164,0.5133365257955298,0.4708397590487654,0.5047987161669869,0.5697993119736872,0.5019534626741268
0.4603992847417901,0.5255454923260849,0.45922033160690257,0.5218124700963123,0.45624101568744185,0.5438575218814623,0.442782710220023,0.6019866131640422,0.4863281225432251,0.4878182058157245,0.462283433332669,0.4899947097925928,0.5516040400349412,0.5226537444380011,0.5819908081556083,0.6613037770598335,0.6837674944372292,0.6973868192088398,0.5343028556028631,0.5557094209514238,0.496056550913834,0.590328164001695,0.4614238709617162,0.4863624070803791,0.46413822535639176,0.6323059949397332,0.4569091446904505,0.5024707747737283,0.45247632284841205,0.5163785619482278,0.5016458043583981,0.549208253042596,0.47304960234099314,0.5266856490479763,0.5042274811698627,0.4927308459950506,0.4726206618943649,0.5493166913228855,0.45188328565469504,0.540755261745485,0.4478528376328615,0.48600375637839155,0.44486091574844694,0.5192452259563829,0.5744947248760082,0.5117329828608085,0.46037191090558754,0.5338929662290218,0.5950574777998375,0.4893477599145445,0.43621540973804696,0.4857023460298879,0.4552566918679723,0.49571571480694515,0.5112852496309601,0.48766262632044793,0.43289529656112696,0.5940507811462049,0.528149715205913,0.5022638480630468,0.4401380042331322,0.5873067631079254,0.5508596428543034,0.4913054449144093,0.45881245681249033,0.5424383712581127,0.46124068406296626,0.48233891190535905,0.4856200529425994,0.507963634050546,0.4511653647126129,0.5041299981069532
0.4388146595504936,0.48667033761577533,0.8161178689122689,0.6105532514703784,0.4561329083313169,0.49040310308694657,0.47040479863385765,0.4603528895658039,0.4319514896920949,0.5501834153893558,0.45384154626209083,0.5525835682198276,0.6293107026819115,0.5742697131600647,0.6830564877438731,0.6051206395756836,0.422557319440664,0.5738954510369072,0.4596375334888284,0.5110439423024644,0.8012519670670664,0.5277294903614587,0.47345809812973155,0.5067566572947043,0.5184996676944683,0.5120844411170163,0.43041363649468023,0.554336403150654,0.46723587168999314,0.47841415193203174,0.4849039764911616,0.5747403158410795,0.44844833773251824,0.5242701707398357,0.4530617542958633,0.5709518249254224,0.440950157557961,0.5395700090227153,0.6852500249286966,0.7703694078289406,0.6764877557677584,0.5261971239958949,0.4544839233792456,0.5158067975892653,0.8067560965843624,0.47407303902190046,0.4643314724804931,0.5652341797460726,0.49790502369001927,0.6234716717406258,0.45133529125446537,0.47666906173702583,0.45772741048451077,0.4666852955682967,0.48241297527658566,0.4773725503890103,0.4474572305934944,0.46116058605023547,0.511236777274828,0.5007270539431243,0.48013224826527195,0.4986292890729568,0.48260837430694686,0.5423592656974797,0.42743746790348497,0.5379140203526117,0.44837369329821575,0.5963214025421444,0.45682962049507525,0.526951787450155,0.5226464426379258,0.5029937567655852
0.447798633792185,0.6746864023358966,0.44265865836440027,0.5396502187809991,0.4632359388543639,0.4868196601377918,0.5153403696791422,0.5087524821976023,0.4547650000951013,0.4775599432413672,0.4880690953604457,0.4817932534107115,0.7073697832714627,0.6236230168472854,0.7232732605279095,0.7523699545604332,0.8144501779804352,0.5223744133752053,0.46061937213928855,0.5499285351496264,0.4645025317929326,0.5079458005167311,0.4827337445256937,0.4711005631504057,0.5368402124026289,0.490769096749737,0.4485503372018534,0.6198210555352099,0.4561675922896688,0.5958103251815837,0.48893974468609724,0.48051476769828716,0.46468063348144534,0.531648174628651,0.4847751119963768,0.4940917712747533,0.4868219018058568,0.4997104933352337,0.4478612494103182,0.559665573463272,0.4550875591019482,0.48721134464887383,0.46189253063963254,0.5594556343176948,0.520923159006947,0.4917788992339034,0.44170161591346424,0.4877620248188931,0.5537188379866326,0.5248258157522298,0.46064331154073573,0.5057053641826527,0.4507605126017994,0.5294581025499234,0.4849284952572937,0.4780331453483318,0.4663875501105695,0.5715215377860663,0.5960001006348138,0.4816793096390587,0.45282518903430957,0.6628044051237378,0.4818672818849257,0.4915107632500996,0.4553526779478306,0.5094425169266826,0.4583324518239027,0.48363771957878676,0.476202100550629,0.49569322683624994,0.5206084347938088,0.5113894370292742
0.4890936293305074,0.5951412051631302,0.45465437467965963,0.5147909202725558,0.4518906362853733,0.512046549981341,0.44846400960536326,0.4937913554661288,0.48638646512302997,0.48330820429449933,0.5809723880836539,0.5300259351087626,0.531149428352264,0.5668481567017948,0.5319445064994965,0.5321621263880506,0.6250805853551493,0.4964828635344728,0.4488727581400467,0.510663884006191,0.46467972738458907,0.48162059169934324,0.4791781243017403,0.5913020421111086,0.47821058936257577,0.5650067321511214,0.4548918182023577,0.5937064083318265,0.46739387239747276,0.5636380478161864,0.47191542064480363,0.5763979855612538,0.511701869338362,0.4786980338101949,0.5042679865679773,0.47950881586655,0.49427332902730875,0.4790114739826319,0.4556166859748435,0.48931007462712295,0.43746951510793924,0.48053880002009375,0.4581390723978077,0.6107774527717732,0.5420108664990421,0.5433514449372188,0.44160363439459727,0.6490866315823289,0.587787221620707,0.6257643409808643,0.443791157545457,0.5890682731728054,0.45437038060703605,0.5301011440819745,0.6428046433834863,0.5875832900555636,0.4477277416978734,0.5949497874937358,0.6137826506705194,0.5195746893220301,0.43768266217599083,0.5044922150308585,0.4861717825885711,0.49116699373307326,0.4621761700139984,0.7036913502824865,0.45988323386617486,0.6734894231769055,0.5829072667674824,0.6028665759246109,0.45983164510475916,0.4835904223016853
0.6565387034639611,0.5561940667881207,0.6936398751170865,0.6957037254688426,0.5270780912174524,0.5589573896046967,0.6284744334251473,0.48980985142353867,0.4386711360815164,0.6057339077067961,0.4457940171383924,0.5644234422238119,0.694550207241228,0.6995576378325452,0.7342080781113436,0.663933180610519,0.6847087051748362,0.687766961571241,0.48024079597654235,0.5909069259576092,0.7085552220709612,0.6205937299525073,0.44798864439974445,0.6589484936850282,0.4598616620129728,0.4840626385199426,0.6262543673589835,0.5840065994850844,0.7529497829025209,0.5588063493300467,0.5231905869944256,0.5812523178588224,0.6904511348261726,0.5558190392303999,0.44598680132258084,0.6080435575346758,0.44518031706891864,0.5665926825193435,0.6107623040892767,0.625408408114781,0.6969349408997969,0.6361920683999156,0.4888796220885756,0.4903882359898496,0.48112024980950324,0.5415246229321035,0.4574046781154027,0.5309324304313982,0.607529510964907,0.6198316721176449,0.4908478207317473,0.49348230470017185,0.42941047729573256,0.5274839810085397,0.45304741337402377,0.4965715495296214,0.5432653333460424,0.47974500803379627,0.6797720451005866,0.5158676099019199,0.7427069178470609,0.4818110598644988,0.46260615586611087,0.5771526925328103,0.43654812026640605,0.5509281313712422,0.4567793623700007,0.5574554142704272,0.44376234647582524,0.5620832000276481,0.5771540579607781,0.5646153332124678
0.4521747698640845,0.4722223126951671,0.7337482363441614,0.4773562629118194,0.469767348218009,0.5736910745311626,0.5142320229443509,0.4751127042308733,0.45806102911041324,0.5019614624522046,0.4677486857305091,0.47219174060443464,0.5676658044496398,0.5154642744589677,0.6953190227167138,0.5134504853438825,0.44418650439973656,0.6859384153786368,0.46898562663791293,0.5264137060642278,0.45949718767974757,0.5592753232294878,0.7085799916649325,0.484689728676612,0.5227008455419273,0.5035501511051249,0.46178357036614104,0.4780363469793303,0.45111716089646114,0.5182437319621818,0.47066767622630923,0.48456545503651355,0.595567088055614,0.48453629492268785,0.4442184982607999,0.48165350511856975,0.4655909935145131,0.4769543116004747,0.6537308098582846,0.48515618046947423,0.7060160647528368,0.5106812127454892,0.4470211117494748,0.5800271730129944,0.5282382829521924,0.5708848456093609,0.45271346057407547,0.5268246802912426,0.6193319261355531,0.5044004068549192,0.4630734778844433,0.6124917373821576,0.45907574979316057,0.587069207935598,0.5909913472699181,0.5138143542784533,0.4499538864135465,0.5223408256014731,0.622165355727498,0.6110853310258643,0.47004004625704626,0.570632135390193,0.47018460653557087,0.47861849184374944,0.44738559089732605,0.5476163481948307,0.45148385615398084,0.5259388789083227,0.4823436590088933,0.48721062563225837,0.4839810124633134,0.5077375021859554
0.45105758644433586,0.5502276043807706,0.46008578752868684,0.5429965260916383,0.45634758626974886,0.4655754205369905,0.4555565911011287,0.5921116889755019,0.5005996508305522,0.47220068244153596,0.4781119050216727,0.49574606877085825,0.6188419879001205,0.6590848003439981,0.6255376978454302,0.593951717831841,0.67233699095397,0.47087194478087663,0.6490089815701069,0.5453419493647853,0.48231046850283427,0.6529628525316262,0.47826483148537474,0.5086952644421706,0.4675410639308421,0.5064472496201591,0.43725446325255524,0.5905695012626113,0.4655391101781135,0.4791177268847034,0.49761579060936917,0.5291307567263521,0.507967324000835,0.5610414502872983,0.47049407103283875,0.4894795966984005,0.47207100101322685,0.5390142540370298,0.45721565445570667,0.5196832953895107,0.449488748725749,0.506709263123158,0.46043664166421194,0.5601485181376795,0.505374692879486,0.7956117638117697,0.46422660323871745,0.6011267714027044,0.503432349913439,0.5603971160382257,0.43742852750857053,0.5918762182735895,0.46395846257091394,0.5319729113039334,0.578145010672131,0.5213805309570771,0.4449527695446424,0.6314150111766201,0.5139862735200499,0.5017134721642977,0.43040215339934307,0.6286385161527835,0.5345598481044368,0.5470715400212885,0.4851634206586559,0.5648826994731286,0.4764325854663885,0.5363862705263236,0.5363221450240571,0.5491626164187156,0.46950469927078314,0.47397511488470495
0.42883136577965597,0.632788421054712,0.48887834881975606,0.6134442111002459,0.4239672598525123,0.5243210605034853,0.5223514728414987,0.5365689269954601,0.473470116732985,0.5340234672583093,0.6223512705184098,0.5377840534951599,0.4690498439437157,0.4937543620953268,0.5296419357205132,0.5623952303408716,0.5849337159624115,0.7064568957634176,0.849593846411725,0.5175780827239621,0.46842030182855743,0.505060614071905,0.46499981337525015,0.6162496741942066,0.41161800132856297,0.6090679988336867,0.5914979560668485,0.571752200522029,0.4244892394133129,0.6356755749659582,0.5005090072434549,0.542699197460868,0.523569788570714,0.48731289341215434,0.43416975180985923,0.5729044026119026,0.4291983922593522,0.5338061429752883,0.48788300112196403,0.5325822949077978,0.4786031768652811,0.5132049217090696,0.4571746291223618,0.5798173222832175,0.49159150560209347,0.7116256682416375,0.41990284428218566,0.5262961302271825,0.5944996770464439,0.6671534101211681,0.41895307486964095,0.5726198818267954,0.42673884964098896,0.5295849343541099,0.47619227277022,0.5324959655401978,0.45591040441788655,0.6369822703408895,0.6657174595392338,0.5062874557557608,0.5241736521241276,0.48344444821529126,0.46926026837829954,0.5123562040794589,0.455922862460556,0.6609044859627223,0.43836917082341403,0.6278688471449692,0.6568524697364351,0.4735068542102203,0.4165094877167162,0.48208122227196315
0.4579043286035247,0.48409025454341703,0.45753451314418114,0.5052153775246886,0.4556856237511484,0.532682290507745,0.47597091363782196,0.5622111389859089,0.45731882494546,0.48246824709689223,0.4836663618881888,0.5908479500041356,0.5272160917061971,0.4806643471415911,0.6194063805945842,0.640839942028501,0.7301862984779017,0.4763506760657365,0.5494761657117795,0.5385628519347438,0.4727752550223552,0.4818499030354331,0.49210908363362643,0.5868025883228402,0.4587809180609346,0.5507642881307784,0.4577457376003755,0.49288196838067416,0.4618366825083738,0.5621292326706194,0.4997321993135184,0.5491440130179368,0.47462374843304644,0.49410381182435476,0.4663318835024366,0.4936865083945041,0.49193237339200346,0.5576264058438392,0.448390822801723,0.48719512273598653,0.45008071537611327,0.4876746539322084,0.4577519040274809,0.5205297132432116,0.47358219252493,0.5859731364662,0.4569520622158144,0.5671840227053155,0.580465792487088,0.6065684653265183,0.4489792728771175,0.4982693999036295,0.4568099270463748,0.4888245487783984,0.6049103245084737,0.46957593866499936,0.47145153727424416,0.5551667268884218,0.503577955589254,0.5250508707324676,0.45782871170386275,0.4917701120716065,0.4632533229176698,0.6106303622748153,0.4621685268282749,0.5118733926234578,0.47342707557420677,0.48329285302146774,0.531208123931419,0.6143003763634817,0.45858352922934476,0.49114194620219714
0.4540051701001732,0.5431560686059713,0.4811638723928315,0.5501659872438469,0.468167775876497,0.5202666116372824,0.43791153002809646,0.5372934478873952,0.4769550564483646,0.5254850219735615,0.43561729743562144,0.5331706510250162,0.5961456625335725,0.5726466980128946,0.5781860050514122,0.5813137324107142,0.4760636300377145,0.5945517166297571,0.45370060923864614,0.541679326486141,0.472043441163524,0.5427513543984702,0.4331731977297431,0.5589435720950018,0.5280116511770389,0.5575487416444981,0.46805264040584255,0.5304413203929967,0.5549038261471763,0.5402869546506984,0.5543708926178257,0.5387712057177445,0.5739026452133033,0.5284756457831188,0.4647648006488007,0.5470576917179448,0.44761820914067374,0.5430682816780351,0.6271783656790508,0.5308316765191808,0.5106527212060264,0.5228178443504542,0.46563583151540544,0.5254997493643127,0.5906095078469246,0.5581909466204695,0.45579677554189063,0.5545882278273941,0.6520811180567062,0.5782803416329433,0.41390732557397464,0.5280763813365286,0.5057358283921194,0.5285636487660317,0.49733569452611914,0.512362336596546,0.4363523711896066,0.551883678956058,0.5263712121745505,0.5357975423237619,0.48194284939360793,0.5551199908936758,0.500515686164441,0.5254210245191575,0.46609486572005343,0.5606762470226917,0.451055248061705,0.5414349177115859,0.4911999960986588,0.5340864443786796,0.4481080535955835,0.5153569882024479
0.4662065616044867,0.4993968334588625,0.4531055153084763,0.5550918873343132,0.47055926693510386,0.49774955040128727,0.496024322524174,0.795780165246844,0.5600270324597015,0.6342574944492506,0.48188057326740175,0.5713950410865316,0.5745797683343802,0.5566427400043514,0.6348488719202027,0.7273577107691975,0.8547000456805117,0.5379630648876248,0.46768509099984723,0.4903372268464746,0.4929516207882874,0.49029617875517434,0.47101460396842176,0.540660920612428,0.5068045882306662,0.49967533180496354,0.4379172977370613,0.49885475967493537,0.4624630500954446,0.488923164350354,0.47759534159873146,0.5536303861660049,0.5088516147213261,0.6551586246885194,0.47157682012986557,0.6410682563366606,0.5245542811140597,0.5866180512693859,0.4383586005914542,0.47471706809668845,0.45202153894841174,0.5965688759964549,0.4500797162977219,0.5092311045210306,0.7191523440656421,0.5260124159290069,0.4513194529243159,0.6768109193620339,0.6314677005458416,0.5063021125350226,0.43395421834561787,0.5009912672997319,0.4118573194641467,0.6760640652983531,0.7626059415748538,0.5851733941082398,0.4482700253974083,0.511060327826561,0.6095594947791992,0.7565881578503653,0.4325700295164187,0.6215987457822807,0.7078283077275733,0.5294095477012762,0.45167305935897195,0.6499934813705439,0.4570592302274238,0.5072899628492586,0.5266732171417514,0.5689206523933233,0.46223114067880905,0.5033553511385142
0.4887951782469492,0.5547559749214688,0.5195695530190074,0.5570778593087795,0.46287786162600275,0.5088230989610207,0.4934269773606745,0.521884703440295,0.4710107474900511,0.5019918134702126,0.4905051479403414,0.5628674651211899,0.5893847544284946,0.615016639644087,0.6109123009787739,0.5872869788397679,0.5889778512692407,0.5682217771686435,0.5408060361366793,0.524991337667454,0.5025083211438055,0.6106797874465074,0.49852870133085925,0.488768028813691,0.4959790988323811,0.5788071578586724,0.4786349774298705,0.4817018859349897,0.49172319008708965,0.5906941328219563,0.5060421118394715,0.5525736103266257,0.5240427465229052,0.5445865968100432,0.473221146340587,0.49115191251048385,0.5080917934145106,0.6048100203825019,0.5060036058779599,0.4974890196470061,0.5139769164174526,0.5462474831872879,0.45693474180554894,0.4849061554555081,0.548761194924025,0.5069607868578361,0.46710976383539365,0.5584679627741069,0.5655157746245584,0.5403819206145877,0.44654256926066027,0.5066747408603252,0.45151231158585475,0.474965830084847,0.546777476532403,0.5381080945624591,0.4586005408315449,0.527586793155038,0.5823675763504558,0.48297321492219414,0.4851683870580313,0.5280817587718947,0.497238473802809,0.4983758054584027,0.4585506813171268,0.499661392155332,0.4604816664118732,0.5343894507239673,0.5145730759663235,0.550932870147012,0.4870643502587305,0.49132501937554035
