ME_POz-Fz,MD_POz-Fz,ME_POz-Cz,MD_POz-Cz,ME_POz-C3,MD_POz-C3,ME_POz-C4,MD_POz-C4,ME_POz-F3,MD_POz-F3,ME_POz-F4,MD_POz-F4,ME_POz-P3,MD_POz-P3,ME_POz-P4,MD_POz-P4,ME_Fz-Cz,MD_Fz-Cz,ME_Fz-C3,MD_Fz-C3,ME_Fz-C4,MD_Fz-C4,ME_Fz-F3,MD_Fz-F3,ME_Fz-F4,MD_Fz-F4,ME_Fz-P3,MD_Fz-P3,ME_Fz-P4,MD_Fz-P4,ME_Cz-C3,MD_Cz-C3,ME_Cz-C4,MD_Cz-C4,ME_Cz-F3,MD_Cz-F3,ME_Cz-F4,MD_Cz-F4,ME_Cz-P3,MD_Cz-P3,ME_Cz-P4,MD_Cz-P4,ME_C3-C4,MD_C3-C4,ME_C3-F3,MD_C3-F3,ME_C3-F4,MD_C3-F4,ME_C3-P3,MD_C3-P3,ME_C3-P4,MD_C3-P4,ME_C4-F3,MD_C4-F3,ME_C4-F4,MD_C4-F4,ME_C4-P3,MD_C4-P3,ME_C4-P4,MD_C4-P4,ME_F3-F4,MD_F3-F4,ME_F3-P3,MD_F3-P3,ME_F3-P4,MD_F3-P4,ME_F4-P3,MD_F4-P3,ME_F4-P4,MD_F4-P4,ME_P3-P4,MD_P3-P4
0.5427018230344993,0.5413719217864045,0.4200480745088803,0.43229682184508683,0.42041999969675903,0.46256498841529387,0.39858916124809635,0.3226556569985847,0.47937024922502924,0.47393259783725866,0.4569463928488412,0.42933903973560456,0.5213094792670461,0.5707701896772439,0.5385097037785792,0.5576877173688924,0.5320911224279273,0.4634346324165445,0.39844688180475785,0.2863613056144502,0.42737156757439093,0.5647753570865104,0.46667875767059286,0.321534881805758,0.4489588066722487,0.662710669117723,0.4101244684648517,0.3573329509605026,0.6768496292211507,0.7616148844976398,0.500060656435955,0.5215278797490489,0.5617377424929512,0.5628514174305652,0.4252605465716932,0.423095543354452,0.5009624270627044,0.4784438473829537,0.413174418459042,0.4407913859214636,0.39511821374211226,0.41975662905111744,0.4322239877093721,0.4267264056979889,0.5443460386899505,0.567097055191206,0.3628115459546383,0.31096147402017027,0.6208293900517127,0.6762139827167343,0.29120053903221776,0.3581204267624962,0.3420654573866943,0.4274355600147935,0.614144169362514,0.6288112848803037,0.4123667299479764,0.33543690461385045,0.5629032880450283,0.4550987734679873,0.37868147057034696,0.39220434128653936,0.5145426199774398,0.5593848968442613,0.43937961884370935,0.46688606760157214,0.3862106532345708,0.31848210454820886,0.6366379914314182,0.5630582035174779,0.35298968776351597,0.3841071690229879
0.6483118232245205,0.6691691104543265,0.34040647222604936,0.3888571626564577,0.3944923209252923,0.392743541074981,0.35102332340554165,0.39496827462255546,0.5234460336739942,0.465945094426466,0.48197994279988465,0.46572599944348586,0.5950319209999225,0.5488295467050597,0.5277172557537076,0.5523247203827334,0.5631455183138837,0.6436370276411403,0.3782490922972084,0.3765434394322265,0.3784786223288754,0.38789945694002986,0.600535717423439,0.43980337322263124,0.5344663910834746,0.5004547295269213,0.37134483438269783,0.4689886803464859,0.38411967120565926,0.4349154662944258,0.5156898257033907,0.5019417012842069,0.5466028110542702,0.5306932537598967,0.4647573227321925,0.47019921851702373,0.49811714015218095,0.4968734718136848,0.4082212466502245,0.3739434434116483,0.37657468551696843,0.38743933721762336,0.44629437176316866,0.4100831809390254,0.5852988307526699,0.6788425494375441,0.33032120589630104,0.3538167157263245,0.6231906997095192,0.6174435061718011,0.4266342328124944,0.37018608622967425,0.33544797234658413,0.3525794579099807,0.5879550512936544,0.6027438850880331,0.4188656669729875,0.36856429776745087,0.5870475076900659,0.5776891487852863,0.4043860706388256,0.3743914064100466,0.46444958509085305,0.5499103430135406,0.377115706432629,0.39777320831465846,0.3603460309191896,0.38796230333360304,0.4869861306449169,0.5115030600839914,0.5249066254182423,0.4446217214371172
0.37715384185847217,0.42183679417962994,0.4129229166080593,0.39451522656148263,0.2618826975280707,0.40756638110614835,0.6470009375989383,0.4731775320641117,0.3862867141777336,0.4961477437891924,0.4587899794670792,0.4006750506252762,0.4772285871912628,0.4578292509557665,0.667030900004391,0.6031804286927691,0.42932773719768513,0.6115727313188831,0.7523926141448029,0.4081305994453677,0.2994560730170796,0.43388616835778815,0.6742275055587835,0.4853088593804092,0.39821283810832947,0.6384194201193739,0.6036348546782601,0.5442218511002269,0.31034423831433583,0.3959306094670913,0.5143185083659165,0.4319823429954495,0.6050238043876514,0.5593691608853154,0.3985387960877278,0.36147283284674747,0.8387993482160443,0.864864978845346,0.379651353587907,0.3257693970751126,0.4613301720281441,0.44316176684306474,0.24838329295016084,0.3822897448206143,0.7721258940707724,0.6563412346003868,0.4779161621703831,0.4048999209623316,0.5246197973523412,0.6760394535571103,0.2574530494748635,0.3742717559375467,0.198052943120039,0.2797873214921156,0.6386308470961227,0.5688317187587832,0.4009069310760988,0.31072899467707543,0.7950201232115158,0.6836818787148996,0.3525360868885479,0.35708227980991336,0.5494079435826573,0.8117954421209753,0.30123482533917967,0.3455750647532031,0.4009291839605284,0.3260178679522973,0.48827998538163275,0.4469301473316307,0.4280120415706811,0.3614652528365095
0.6792422308904094,0.598767091693039,0.37274684823688453,0.7999916381099951,0.5421380546562107,0.7882185342289684,0.3544182609132488,0.46186693080965113,0.4751688143902492,0.24394629564189696,0.4338244750497476,0.3909905262452938,0.6694900226761827,0.6691941450703688,0.4040213199447226,0.6313214540696059,0.349810201105748,0.5140179342205868,0.5458293188401653,0.7168800449044213,0.38386328228469424,0.40141421709270164,0.48532318601380253,0.4270513971285939,0.5381601836187573,0.2924071957479147,0.5109696853397513,0.4991369929378278,0.5602728239085584,0.5584438660363424,0.6965895551731229,0.6825456360083473,0.5620406238849047,0.5795458218587479,0.372624521485713,0.19741775697829558,0.4659343350421474,0.42805670084963365,0.5715724515998615,0.6544669888092349,0.4837253546370542,0.7479929901615144,0.48573438708791233,0.4199851276956405,0.2686301004345055,0.284929945236177,0.38705030792817924,0.25831854828765327,0.6572730110570227,0.710630006576681,0.4728463195932492,0.582947956288386,0.4412255384397509,0.42177911781298966,0.3814780020583306,0.5272710493104186,0.445033430405001,0.44384565412692956,0.6051939493944378,0.6001478282636762,0.7507236558034863,0.6445876003488206,0.3143002136120176,0.32931138710938224,0.4495432290976896,0.2942270793606573,0.32490174310896835,0.3477316032589933,0.48608317219021896,0.43455431880026596,0.4802546261937861,0.5246852294590935
0.5009447150550969,0.5494677390697696,0.5470030504837053,0.4244884516871098,0.38413026740105505,0.44604086706929497,0.5477955694458838,0.3767394932855178,0.36137823114105494,0.513985028112537,0.5269583379610675,0.46484487671481173,0.34371888340092216,0.6006510043089982,0.587885186372764,0.4507878756722731,0.523615399302263,0.5804859805140667,0.5691645205641142,0.3957611305707789,0.3785438823683005,0.5267106342559916,0.564657292378002,0.2974142329294965,0.22936973783448775,0.5213439341094843,0.5565207937109106,0.4037682277033811,0.419140128010976,0.6017164492410767,0.4328668145157112,0.5269574814504466,0.4477434838362188,0.5542052591243936,0.3992558083953109,0.4107100137687038,0.48202913090616406,0.4074044208652838,0.5263814680921838,0.432669065903356,0.4218487761110149,0.407696234492973,0.31786718381849577,0.4005941905270167,0.641823100400336,0.6303501941997617,0.37965479773292726,0.31574260252787056,0.7621302646652319,0.6636961322382556,0.30001368871629097,0.34289484825742134,0.33414669696155064,0.3754803915107423,0.6753234131931727,0.5430134618794469,0.42001254920335845,0.34029052784816305,0.6961800819236824,0.6312076109620895,0.3690663839040016,0.4003911316626619,0.5241740739465207,0.5914009720446838,0.36277333499014,0.4752548607454528,0.4048705123239847,0.3746634041198387,0.6973350246219602,0.5739410120748059,0.30760121740101587,0.3582249760170784
0.44623547300083155,0.46122374382731113,0.4761806819603074,0.4804959664603561,0.4078026866408737,0.4723604334091737,0.45374824661835034,0.4475325054899318,0.42082867779151484,0.42788951516116075,0.4630824584430668,0.4223727635883012,0.5942959160206286,0.5821862251483932,0.6205049700367514,0.6277303034970682,0.5761987672421298,0.5905544982684741,0.5066914297759175,0.41471706331963265,0.4663664282347472,0.5266403133009888,0.514085306411706,0.42179422615799883,0.4752978558394904,0.5608931103302586,0.43179916236044164,0.41899138672782005,0.43500545633734333,0.5092880699757236,0.4989161679595648,0.5478386776903562,0.524338105409834,0.5357352107688806,0.4367415766996828,0.4185537519353428,0.4913320803623428,0.4780133701574019,0.45032447807464776,0.48122112184991594,0.45983480104888025,0.4592768998537544,0.3840123500990759,0.4023538279966194,0.6278902770216542,0.5746910532284828,0.36622034746949306,0.335683540830816,0.6168730084487338,0.6615901635738226,0.3405966620871079,0.39102361307960776,0.33897792763068213,0.4013238685604568,0.6377558351322543,0.6026410729406466,0.3718186395518706,0.3750026856186222,0.6255087555471832,0.5954173097572323,0.399244316958756,0.4443355013710624,0.5145968933962383,0.514250285665472,0.36858828498602547,0.42779162433323914,0.364386328981068,0.36225158693246284,0.5423707261246676,0.5164763078917275,0.457590247557986,0.4391946484109939
0.5860162310031632,0.3478516388873428,0.44047034117543876,0.3928936934615658,0.3333997354613449,0.5834414531513619,0.36623813613585326,0.35140674426198226,0.5476148222355324,0.5026232754958689,0.4707337236198863,0.303441745978893,0.6812282670916077,0.6482001252431719,0.5013565036995424,0.613556680621819,0.4906155448655687,0.5555537322777544,0.6347303547103634,0.3082640674887555,0.29117607855187944,0.6593885411963245,0.6712099811705193,0.5281072009384772,0.4749810837349512,0.7335280799443002,0.46774065615780486,0.3295465914197208,0.2581522672620253,0.528562620257507,0.4487443610177874,0.5980542612727309,0.5658413730557271,0.5008524824864236,0.3593419149320215,0.3747439513718269,0.6442104096584631,0.6009204622834641,0.2835636080587079,0.41609781989388334,0.5199443108663709,0.3700974208746752,0.44176572831726346,0.34551251590560605,0.6199106439548251,0.3268680172492807,0.45273980749511045,0.4247824346903043,0.43661375429424804,0.7196426396829871,0.3568792948532128,0.3356927065841628,0.3021829800929403,0.6290406428325769,0.5677538526761357,0.6441146137340803,0.42829349336900063,0.3337771498388803,0.6328479151906777,0.5194851417337187,0.39544614928838184,0.49405872183887595,0.5592053645144823,0.4471033512112867,0.3113687827003126,0.7855202543809091,0.34977144248654585,0.32536649862638567,0.4809131864547009,0.46248535418965153,0.6145331198142197,0.460998364125145
0.3338469494062298,0.45286139480504856,0.7958634968163983,0.6521301927009652,0.3576184681044008,0.5221191188110358,0.5644761529787645,0.35869399513543454,0.3045653054270203,0.46039489302174064,0.6001513268901658,0.3883834127741724,0.4414639809951428,0.6340874833125834,0.6928811617051808,0.39721471148203447,0.38089358913707516,0.6470644934397501,0.4826670459958521,0.28853187039644834,0.46173838186184063,0.6119674565189984,0.5506253022057572,0.31621598294639014,0.5134622651805223,0.7737939162242775,0.5398384019123216,0.353095823089998,0.45423357692544136,0.6785254224558461,0.4403959229899653,0.4161254931096339,0.5512953899735121,0.48022473565544194,0.2550864095538812,0.39409905999807504,0.6203371280965386,0.503276321589038,0.5253654180536842,0.4672247284413731,0.5397017421664895,0.49437802171385636,0.3763523917996599,0.3372931968702174,0.5901118966855433,0.6534203126257595,0.37271688407782844,0.24022098424822477,0.6198484307294451,0.7287305667625303,0.27197526632299107,0.3059883071469787,0.341407857080869,0.3824142685426175,0.7192225368534334,0.7283577097272008,0.261600926505518,0.28350089280661517,0.6285992186100253,0.7398858904567913,0.27112509749368063,0.3570626476984384,0.5970059699003825,0.573959445681062,0.4101459465201892,0.4215455138073558,0.3816659134846181,0.2966854749542648,0.5836326587893861,0.7951099546071704,0.3016583931871618,0.2230288350384975
0.3566465793850305,0.40234932143898094,0.3627373647865493,0.34619333807844277,0.3609173971812022,0.5335673450338917,0.3278565844487584,0.288537150254249,0.3541362764968799,0.4783483439233027,0.456857249716469,0.3978084883170002,0.859996275268391,0.6810058946817368,0.751596908412542,0.5621027171531263,0.5163937289078251,0.7842659990828421,0.550899783149,0.2779358315223545,0.5563050543493044,0.7271184346727168,0.6150980322774128,0.4594929205361888,0.42861803604053667,0.5668150670661406,0.3871970009169138,0.2922102070971407,0.34047186563176673,0.5256143128341363,0.4453695576264451,0.36088425774184135,0.6653286378769122,0.7779193769551754,0.6919463739938928,0.3410788684936141,0.4431537733225901,0.6502325947068386,0.30538781714375207,0.34445615151442743,0.5499467222137915,0.505236834101788,0.4140999470888972,0.41141288334378234,0.6377186377040565,0.49618177112807016,0.469661154374891,0.36342032966373083,0.4538290213285171,0.7057406972513812,0.2715523169417389,0.5070770316290163,0.46923225908864474,0.42382675510422363,0.6882920230828347,0.6284078247887109,0.2517850863061931,0.3306840459230821,0.44204339540362475,0.3819299203536144,0.30042619152685945,0.3690878106844361,0.390359786006656,0.44357880823857576,0.43912755662740394,0.52661002585716,0.42472861640873383,0.3808589047831129,0.4428265343524808,0.4072191407568774,0.6483378910723995,0.49304391965379296
0.4113529538479483,0.40649642407322,0.4109948362441441,0.44171946123386335,0.413591248384288,0.3024151006946263,0.38344580042738785,0.5288773239547553,0.4629122560200485,0.41156457177952993,0.40656436970119136,0.5369214991759252,0.5520934059738515,0.47126631687027637,0.5889431825914733,0.8192809458242367,0.7739615184478815,0.7818292653000346,0.5175733482632492,0.5997360067308386,0.519577156514097,0.5787000983510561,0.4263193869822191,0.4647718325252364,0.48955077511733075,0.3950222369248314,0.41365750255353345,0.4466633354595457,0.37871218462536954,0.433104815084891,0.5195904796523988,0.5540019119725268,0.49293917323505615,0.5484972711781364,0.5080257341497545,0.4714819167625691,0.4917177874596013,0.47409693025601596,0.3609721111984538,0.4037650825358005,0.356811379586966,0.4105869882787957,0.35031785315683917,0.40504859627939205,0.7175334257509273,0.7101941294642706,0.3859631079022536,0.40892533549534027,0.6416186406533946,0.5987938206868217,0.32835380953203624,0.3340107251389914,0.3763603156914678,0.3691222979485521,0.6811902915335802,0.6150533911621278,0.3195366832693227,0.3556366460291792,0.590175352756736,0.6023471789170394,0.33239375927570475,0.40268142353644487,0.6197404716306153,0.6116140191793297,0.3986888101747487,0.3840056675343314,0.393822633389016,0.4674249500961018,0.5205678041888749,0.5345611267210124,0.4281368803404206,0.44137747802175237
0.3530546588270002,0.41935094064958056,0.8388660384403908,0.7558985737548247,0.42089173166146604,0.4963116714610708,0.4279997296226952,0.5926041803847139,0.32996062604694754,0.2668322642388603,0.35713695274537705,0.35190154844013033,0.6383013663004454,0.6897359395607594,0.7295305594679694,0.7798666634641945,0.2493469635093085,0.48170699856015614,0.37686611299972816,0.5116424572212754,0.881380601125645,0.41656310196132884,0.4418696949732183,0.5113911984374294,0.7108587772471902,0.5291003650726245,0.246258572676788,0.4905397522132299,0.4601605895417884,0.40166765256703574,0.5281763720718118,0.602077590924549,0.32113031541508985,0.5329747695411304,0.438560319979418,0.2739132976939977,0.2812685285749289,0.298931300447486,0.7345993369807858,0.8816500156901107,0.6822688361825278,0.6520295029004703,0.3384545457183541,0.46109406087304283,0.8564769388271467,0.4744810876027339,0.3629454272600706,0.36355284252699616,0.604073931093861,0.674185296267788,0.3540381089437456,0.4513278474698045,0.38014684625057144,0.3328643790889318,0.6419731147394263,0.5464941882797942,0.28620993355000207,0.5520984241831872,0.5178876027752877,0.6622966860037136,0.4560975854170076,0.6037006124458715,0.5662147274062581,0.29304227731883714,0.279962482295694,0.293014384084129,0.29697882003338294,0.29743489275553475,0.4317004178348271,0.4155577699572127,0.5181861830108021,0.6025227493499311
0.3236571143528691,0.3007149646020034,0.2590903146072576,0.4189567260855892,0.4687344150851583,0.38425469164951015,0.657455457027138,0.6278791039767214,0.32139116569475196,0.39753524397802564,0.5134964126511798,0.5796440330883039,0.7327337849889508,0.5386199546692408,0.8016587447017152,0.8275027892230398,0.867957173338057,0.46707209364442337,0.38416601499586966,0.4429678057621733,0.4066620088919484,0.41448950666228723,0.5329739264583975,0.5128786188437644,0.6288846019466262,0.5599220149611672,0.2928546871844414,0.38036852278753364,0.3369513986509169,0.3747119457225334,0.45865583232325907,0.5946969189464013,0.3740514790842501,0.5466058946063065,0.5993980399582427,0.47369885416695273,0.5543834862194088,0.3711050099743104,0.27899642155569304,0.4494888837363463,0.3092506208160927,0.47702013016369793,0.36511658475391573,0.3850215496438718,0.7137220649451583,0.6896099597130405,0.24635969188732942,0.3029031414579004,0.6477607923042817,0.5467666811403548,0.4384255057712507,0.32922237757497663,0.2836978311192009,0.30252897405220347,0.6275599574443532,0.5778999894983455,0.49036310209625356,0.42429278174844604,0.7308913341837577,0.693414952386606,0.31426613011965354,0.29186205856324204,0.48902005603610105,0.5532249543013841,0.32391335987873593,0.31393941154787103,0.36131424319927186,0.518796859930936,0.5261529938497967,0.6206899788635565,0.5921649406982757,0.4404824670852003
0.42744591395710907,0.4490950559102671,0.3362960411081683,0.35508912560589523,0.45310150430588403,0.5139607574440579,0.4054819079846088,0.3987045548983842,0.4596437246303892,0.34940802393447584,0.6118220873899683,0.4510899939331685,0.5879150162176621,0.6623852609142102,0.5948422990190139,0.5973780532917206,0.7611964637245272,0.3253617046262411,0.3586817745918646,0.26800898014138386,0.4588976719471233,0.6143501017306848,0.488065647487516,0.39820628212979403,0.5036009267853858,0.6945077346460692,0.3465802588509038,0.3500266779827973,0.38854257607402,0.5378049614321762,0.4162383025052139,0.7434648112704859,0.5267342295370585,0.5367965038078555,0.4875080288402609,0.7170546142601063,0.5040146138433508,0.4479218099290322,0.34702418435538845,0.5116577188827832,0.31033108014163857,0.4348644561382391,0.3840641337921005,0.38428654391542605,0.6607034765298971,0.5553541218084558,0.29690460462351187,0.27484498954735764,0.6942738028298264,0.706642932584539,0.40914258697243616,0.349706190077436,0.3474715417100761,0.6216416693703021,0.683864484838413,0.6798733686429902,0.35454023837519594,0.32408190037135626,0.6572023269966393,0.5869560216054494,0.2578071068550228,0.5702811001032467,0.5545416407199596,0.4478267266538857,0.42033212318553437,0.5878026253599566,0.38444175005177084,0.2396763113850886,0.6237608179664443,0.7452742924977263,0.45254495007691076,0.38901109081817425
0.5585302145854473,0.34482299600249505,0.516840895767372,0.4695947197551127,0.5138313317005002,0.49405742932229924,0.5295800724695445,0.4775447979442367,0.2680728590950285,0.35684325558339186,0.33028217851517794,0.37123796602176845,0.6717194838878671,0.6940664493761678,0.7090216489283975,0.6827408435749134,0.4714528683820506,0.729303483105266,0.37383958948970786,0.580329127422226,0.6585439803972682,0.5930887724170708,0.3427614163694252,0.43932932563451815,0.44862654217349196,0.5310394331702039,0.5144706154929106,0.4564387905200591,0.7194097100293261,0.4235971178652437,0.47837906011575093,0.547204707428013,0.5541872360104815,0.5118248389318483,0.488119456889126,0.45882417773483636,0.41810485209960496,0.44784558375579014,0.4281944572899639,0.4504957185175023,0.5292043903120508,0.4588214115119512,0.3819155588880129,0.3870289049295258,0.5747602229616056,0.49095252818665613,0.37236578333425535,0.4079126666055138,0.6660985332088554,0.6525392628618824,0.4095343163447083,0.3782373058638991,0.3324700901089193,0.40677293966765615,0.5213475422053283,0.5644781507769749,0.38331046366583554,0.4049410742762533,0.6694399628512946,0.6235359563445084,0.6476480518136596,0.4991736077171612,0.4446777316827051,0.3908663546919055,0.24990014405897054,0.3872665437688471,0.3247763785005827,0.371154602474559,0.3984715935445331,0.44391397720234577,0.4905994651226325,0.5160395561107304
0.3489960415692207,0.47839790836618473,0.8086934827062825,0.4215483720066016,0.3959156125309299,0.36671300665133505,0.5591599587726377,0.5055219614307389,0.3018669257711432,0.3788923079760529,0.402540018563782,0.4810158572387291,0.6375914856227954,0.6135410302516681,0.7519362628288618,0.6435328152267106,0.2763311840104199,0.8308235221997641,0.47994871895595637,0.46068193766795545,0.3538441068670844,0.4126494955287885,0.724705398180621,0.5072443156170148,0.5491370322726566,0.5121380941457633,0.37791713336935645,0.3945533412182619,0.3040419113267181,0.4003792539231877,0.4041239116134122,0.4218655910119171,0.6562076676595626,0.5000401137859607,0.22470582632741856,0.48010123962246026,0.43088862990037563,0.5873335573039582,0.6730730236297886,0.3499617830869281,0.7875476498132501,0.388724837453974,0.36579248372397677,0.3760310986591597,0.6438604036630934,0.7598395195679486,0.3635761404966871,0.3513702289920386,0.5887626372051389,0.576595468406515,0.37906830502204536,0.34863910952506794,0.29848784334756545,0.33472981678625824,0.6526268216001058,0.6619979596717104,0.4206886833339806,0.4067971801794847,0.6869636888421554,0.6494987921696851,0.4494969200636177,0.3341156184412386,0.4234551455610533,0.5078208230282475,0.2618292614370056,0.35147489122957876,0.3298280571272497,0.37517275452166315,0.4662102711372208,0.5259620746224283,0.5292613782882964,0.500577489137841
0.3489696128741203,0.35485280222491,0.43899966186229517,0.4687634533557687,0.40300112687271705,0.47232555260540465,0.3895900128615733,0.3692093176722452,0.5209207135438235,0.5310138137715578,0.4737676957604947,0.3779057005263123,0.6035731106723126,0.6562257687834412,0.6298075089794987,0.6451597058796985,0.7462389457500425,0.6111921034603135,0.6196992479098079,0.38385169716150586,0.4823263657979884,0.6506301851713651,0.518862838027494,0.34710384331430744,0.3993434694806299,0.6403030198491457,0.3546476876506955,0.30050361348388965,0.40678347887307903,0.5078523525496798,0.5110280980003672,0.5283553602702508,0.5089439193863777,0.47025372806533705,0.45139089517361525,0.3857672374059021,0.4347040749849831,0.4968889938631048,0.3970950876618701,0.43495580038930626,0.3873799102354796,0.37175235964172043,0.38056943166772195,0.36153701699428376,0.6155752271479339,0.792079640275617,0.3616949428671218,0.3038712312436013,0.5797441288389471,0.6376675738999874,0.281229475969087,0.3446220702560501,0.3202425538476643,0.3640530085440842,0.7183189294567267,0.729592985719528,0.31958221645263873,0.32741334294412294,0.5687581510324202,0.4898642997039344,0.23305900881713165,0.28876113161947464,0.6231959078460683,0.6765687484326273,0.4529113053375435,0.4697951631664267,0.42431993146067615,0.3064474472767335,0.6066882805596142,0.5454226587345172,0.41590602478201316,0.468327432149248
0.3936718422463015,0.5279909180086786,0.4799794714951745,0.4592804772641707,0.363517861180288,0.40806736667224336,0.4769585681707735,0.40784085977758594,0.48741784477772576,0.43161992362366775,0.616474851858688,0.37028790272941114,0.5012295653505966,0.4654839277454503,0.4772637800231152,0.6129706412614425,0.7382393955290107,0.6738640777576372,0.8820228803765952,0.5063987404413974,0.47905005011964497,0.4119898202497481,0.3987273984076388,0.35245277774135575,0.22874574006065526,0.3192628438256421,0.661164984472726,0.6849607086111081,0.3085067146863876,0.5540596917229363,0.6487931625346297,0.5375098382365341,0.5393247614197139,0.40926115004604424,0.3388301418363068,0.4936659287479516,0.28539705570088947,0.44662288652205306,0.5683165111840808,0.7167400077396608,0.3940105066122145,0.3432502248528085,0.4525396023231892,0.3572055987725359,0.4567535369759617,0.7528379387912547,0.24880538425368814,0.384923305616813,0.6632994211067067,0.7371316726461317,0.3044345172101675,0.33903987646612976,0.2943533907708776,0.41903606620426503,0.5006153919196319,0.6832491566236093,0.442213100250212,0.3029278997042243,0.6766843672153553,0.5741838098562213,0.5920775193741308,0.5104823387091483,0.43087341372594035,0.5767690332016052,0.46528465933483043,0.27708414994846803,0.36821949204524806,0.3194827495078581,0.7304077737337444,0.4908905167334933,0.3254631374584108,0.3610498481461233
0.3525957723661636,0.5437708756722895,0.36388903987086096,0.47309925316609364,0.3869787494356251,0.4322032442059023,0.46833908297306187,0.3986188810380646,0.4153321551872621,0.5326763627378063,0.43482272494475227,0.438487635431135,0.6071917718313438,0.32149633961425433,0.6578174269067064,0.6677968907266035,0.8526988339271203,0.4306281296344869,0.5802785074410631,0.26777361958773577,0.41185343918717554,0.4872094713156764,0.6160465462174854,0.38664618192813427,0.41958985710327523,0.7024555159655982,0.3566937958613522,0.4019360124605433,0.33738184429645546,0.42105890068936563,0.5491182850073564,0.654199505143159,0.4469637617168021,0.3835797825460309,0.5626029750859678,0.5324342757551387,0.5037031036980796,0.3255332454780988,0.3490687084100393,0.5445538657745937,0.3130355972546457,0.36761213367425766,0.36363633225658,0.46480253304592484,0.6139013548762492,0.4627849572373054,0.3944235715011915,0.3322619232607627,0.5517127653482976,0.6644962684912934,0.30690186621579163,0.4651268299461353,0.3364565328390508,0.5012370939242942,0.7289771283292457,0.5731099856536939,0.4243095310677147,0.48671120987199323,0.6346822002394634,0.49256667083512545,0.34520344707409956,0.42825531729406174,0.4651800358597209,0.4068661745343965,0.3635290237110549,0.5880809650002156,0.4128004635597499,0.4584969474136422,0.5582485283571326,0.4011082959102876,0.5084602822882112,0.49547493353287636
0.4692142000850426,0.46122374382731113,0.4798713434125026,0.4804959664603561,0.4976677382545165,0.4723604334091737,0.31683281730305807,0.4475325054899318,0.4412782568867961,0.42788951516116075,0.35071742173074,0.4223727635883012,0.6839234117740483,0.5821862251483932,0.5772616853870933,0.6277303034970682,0.5812830204916258,0.5905544982684741,0.3407162331157769,0.41471706331963265,0.5207609724317516,0.5266403133009888,0.23582479021405292,0.42179422615799883,0.555695047194971,0.5608931103302586,0.4413571584587917,0.41899138672782005,0.6938125798398905,0.5092880699757236,0.5023409518568043,0.5478386776903562,0.5143204918398405,0.5357352107688806,0.4093301689062529,0.4185537519353428,0.40634420519323217,0.4780133701574019,0.6109906358440415,0.48122112184991594,0.468813916349995,0.4592768998537544,0.4007070706525675,0.4023538279966194,0.7091485340966249,0.5746910532284828,0.3419766126661521,0.335683540830816,0.6765069988272808,0.6615901635738226,0.31382182449876306,0.39102361307960776,0.5025679029434414,0.4013238685604568,0.7099634408081462,0.6026410729406466,0.24691930102265092,0.3750026856186222,0.5074387519366176,0.5954173097572323,0.47628262381994957,0.4443355013710624,0.5020517288972276,0.514250285665472,0.35022758922508296,0.42779162433323914,0.2701890269060872,0.36225158693246284,0.5238433561155948,0.5164763078917275,0.43725146142272314,0.4391946484109939
0.4661214684471561,0.4152075328230743,0.4217132668894248,0.5180383331193343,0.3760207858108924,0.4686052765470602,0.44897515196109355,0.8268461555155284,0.5549819036173705,0.35431670706776525,0.4147005682037751,0.41654865749595976,0.4858825848815924,0.5154705340637697,0.6005123921930021,0.7864541076724888,0.843177369232446,0.6136646828005674,0.4009651260965506,0.5454300557231287,0.5111328408441054,0.4820658995918684,0.4131080038060335,0.40057757918219544,0.5303971492947959,0.5267644303096043,0.3512109927133815,0.4127837187039491,0.5272164819856595,0.4650534663408516,0.46892753372242996,0.6093100701155987,0.5220071009204643,0.6450395166053637,0.4228066763951772,0.29954860402210504,0.5312394967532262,0.3735910073149521,0.39451682366283874,0.45871988355513726,0.4500173553419184,0.5918432049046725,0.3503997644142549,0.48758079223454054,0.7075149349441726,0.4171254508915111,0.35029946949784685,0.24202187927497612,0.7084011399213156,0.655484293719896,0.2978315554279607,0.5090450300910747,0.20456407183705103,0.27843893788571095,0.7781238690216761,0.3933553253898222,0.33801608461559945,0.45977945092417805,0.6947071370976956,0.8315895972061107,0.2589187634722568,0.6686412814800127,0.7449445585318675,0.4980798784993906,0.34590965554402997,0.2893946637429644,0.3232253584401165,0.3804580493758448,0.6162972752141864,0.3921024410211447,0.33794639769201446,0.47554705265618324
0.44623547300083155,0.538875702071665,0.4761806819603074,0.5160683422984048,0.4078026866408737,0.4996719086298138,0.45374824661835034,0.34142469028364225,0.42082867779151484,0.4838750411226568,0.4630824584430668,0.4088325742623412,0.5942959160206286,0.6226791160153033,0.6205049700367514,0.4960160048559933,0.5761987672421298,0.4750568751005469,0.5066914297759175,0.25439548583859745,0.4663664282347472,0.6312692336178528,0.514085306411706,0.4185594927602815,0.4752978558394904,0.5569803955481262,0.43179916236044164,0.39376054973237956,0.43500545633734333,0.671859540556783,0.4989161679595648,0.5762295171856234,0.524338105409834,0.5484339273387577,0.4367415766996828,0.39321389527075346,0.4913320803623428,0.38231090980959337,0.45032447807464776,0.4857935742697352,0.45983480104888025,0.4539966132441352,0.3840123500990759,0.4411887907881735,0.6278902770216542,0.5198395981341928,0.36622034746949306,0.3332367216375948,0.6168730084487338,0.6217728522399398,0.3405966620871079,0.4032921672672997,0.33897792763068213,0.40238480395638065,0.6377558351322543,0.5535243362867115,0.3718186395518706,0.3335426489193495,0.6255087555471832,0.5175487276209553,0.399244316958756,0.4555540964005524,0.5145968933962383,0.5016317915385902,0.36858828498602547,0.4727903221277866,0.364386328981068,0.39046642540212806,0.5423707261246676,0.5027655263172275,0.457590247557986,0.40411275521060236
